time,Fp1,Fp2,C3,C4,state
0.0,-0.17517322639779875,-0.09702680585505415,-0.1193654723174145,-0.2463118522145798,awake
0.003906504329708966,-0.013450059556918581,-0.01542594762658453,0.26083714471438857,0.1071372510888759,awake
0.007813008659417931,0.07097195731380276,0.12494634800409027,0.32071221248894394,0.07515773865515937,awake
0.011719512989126896,0.2657637251534551,0.38295282873737335,0.38634063116067696,0.4394679797267783,awake
0.015626017318835863,0.27307203277333497,0.3124802905377706,0.2503403695669595,0.19801544350709566,awake
0.01953252164854483,0.4722684543410681,0.22165544057877776,0.1831246401799801,0.1493478580924348,awake
0.023439025978253793,0.5300723781450536,0.17598350890668324,0.26858608900172887,0.3501166328394035,awake
0.02734553030796276,0.45339430615210796,0.19399207504883348,0.25269372218914815,0.2967274487940684,awake
0.031252034637671726,0.552984931261653,0.20269013515982923,0.30365905192766907,0.2395610055234561,awake
0.03515853896738069,0.41382493186306457,0.13269176026514606,0.26530285479246885,0.2228927563280104,awake
0.03906504329708966,0.17313501221138294,0.24654089622994832,0.23501907727898969,0.2989554140120513,awake
0.042971547626798626,0.12447189332205222,0.17241419243079503,0.23023469882015205,0.3648701100176103,awake
0.046878051956507585,0.4821328554741941,0.20283951039907638,0.36126841812912763,0.3708344157251368,awake
0.05078455628621655,0.12068194359607823,0.17433674547373745,0.40632613720050137,0.17464741949935475,awake
0.05469106061592552,0.23267774254738402,0.18652141820338422,0.2004872737927189,0.42682925998696664,awake
0.058597564945634485,0.21612463564432016,0.24917096038354286,0.1290925805303927,0.17769361349582702,awake
0.06250406927534345,0.4160634849001441,0.11071817337120002,0.18040109507766416,0.33514348152961687,awake
0.06641057360505241,0.18766832660700253,0.2528053917726238,0.24373795244889038,0.1043794808715672,awake
0.07031707793476139,0.18499760925954212,-0.13126059631568784,-0.021060574581633268,0.12678996268800402,awake
0.07422358226447034,-0.10147465971844614,-0.14361831640008327,0.04830874906112903,0.08660749404993286,awake
0.07813008659417932,-0.21095452786741556,-0.14394814712350307,0.03746775400604667,0.00046570695528913575,awake
0.08203659092388828,-0.3389601596926891,-0.22004737766603202,-0.08230067561160773,0.1906087943983416,awake
0.08594309525359725,-0.09604611687247604,0.0233165519171607,-0.23211494829688983,-0.13103445831223354,awake
0.08984959958330621,0.07628615096545655,0.20121012817003228,0.03186777864878573,-0.011239974507551584,awake
0.09375610391301517,-0.19314931121506973,-0.04808798316829348,-0.11495915728477928,0.021255965339496738,awake
0.09766260824272414,0.007948707935538563,0.24608727335757102,-0.1610720150033481,0.26331636410720183,awake
0.1015691125724331,-0.07442578956383153,0.03554282412587745,-0.053704228171875465,0.1534251713932731,awake
0.10547561690214208,-0.07415178792262005,0.3449664353400014,0.05120514878924723,0.20901889263343015,awake
0.10938212123185104,0.15780373458778507,0.4053870381143516,0.18927008142301074,0.3613077085322057,awake
0.11328862556156001,0.16510230536313925,0.42332446255215816,0.21091935503519607,0.4052115459957365,awake
0.11719512989126897,0.12134892523642113,0.3886880663057233,0.3490218446616837,0.3294041765739162,awake
0.12110163422097794,0.39084497035036125,0.5030692827459807,0.48515034937425183,0.24555979068916226,awake
0.1250081385506869,0.06936198766384921,0.49471467300525185,0.24386979092092737,0.3036506853736564,awake
0.12891464288039586,0.19811457907311703,0.0636044976435429,0.18466429862076722,0.21220377923934503,awake
0.13282114721010482,0.1629007834882114,0.3044305830195497,-0.04263766801172243,0.2297337670910259,awake
0.1367276515398138,0.12716930934062054,0.5001528825764981,-0.02722850360067483,0.235374287283421,awake
0.14063415586952277,-0.04666840146304442,0.15019641822739452,-0.01918986260811047,0.0003056321787471561,awake
0.14454066019923173,-0.04055289977493834,0.2986540239658984,0.037080945037725216,0.2824730566989354,awake
0.1484471645289407,-0.07472965962391241,0.2729577190148864,-0.022250256007033814,0.04243481317042834,awake
0.15235366885864968,0.23297192353662888,0.2469912733625784,0.2597574249827773,0.23809981073535358,awake
0.15626017318835864,0.13215509373025383,0.19747389045835567,0.10826478094708185,0.0824647508893248,awake
0.1601666775180676,0.1500654117954317,0.021455494094070757,0.24418998176397666,0.31664954863848993,awake
0.16407318184777656,0.03623635508437287,0.12854259331441809,0.10781637203215146,0.1719362359372532,awake
0.16797968617748552,0.04309861843823655,0.1493100496508274,0.03277699272032107,0.11780815294022025,awake
0.1718861905071945,-0.22049214069749695,0.09546886755697359,-0.13013947197876166,0.1282493005408258,awake
0.17579269483690346,-0.07598985997134262,0.12693840506542983,-0.030179884041368385,0.224602878038622,awake
0.17969919916661242,-0.032395418664027884,-0.21727668488896273,-0.18596025821757367,0.08863781134038581,awake
0.18360570349632138,-0.007575165296127652,0.1375818198082932,-0.016458333024391716,0.019521883575706334,awake
0.18751220782603034,0.13226519126142078,0.13422933522419514,-0.22861163362320303,0.12438926661269098,awake
0.19141871215573933,0.023858676565774,-0.05252353101386853,0.022405935675819708,0.11486747416996518,awake
0.1953252164854483,0.16333517167679618,0.05438756553565266,0.025735795923641145,0.21199104667176089,awake
0.19923172081515725,0.2780963086747518,0.23563497808709505,0.1511433440371109,0.2994774278451109,awake
0.2031382251448662,0.2551335463323257,0.26647066302481903,0.2052327899973021,0.1718246628229803,awake
0.2070447294745752,0.3571904832418317,0.27910051428230104,0.21029383846357275,0.1845611277205751,awake
0.21095123380428416,0.4221004781407583,0.3139684838077221,0.3423469008262346,0.3933054586396246,awake
0.21485773813399311,0.4167491735600235,0.42671843355295397,0.41898779353958837,0.48175242816867464,awake
0.21876424246370207,0.2926177204612115,0.1826192952861803,0.21368416339082022,0.2065918405279853,awake
0.22267074679341103,0.27092115929233895,0.09892821474797284,0.24396039813395481,0.26267991687055514,awake
0.22657725112312002,0.44330516244167534,0.3043462548454473,0.5502210929028561,0.4070611467341329,awake
0.23048375545282898,0.39571139243763653,0.25541085357995463,0.34401415940055385,0.404806771156391,awake
0.23439025978253794,0.3042421609187086,-0.014819639033966742,0.30002009096354043,0.05678475993818377,awake
0.2382967641122469,0.09809782029001549,0.040144322474147384,0.04811759605690196,0.051095410105058615,awake
0.2422032684419559,0.20427225851637526,0.16018518187245068,0.03369745979255527,0.07894045008344569,awake
0.24610977277166485,0.11952495836110028,0.00918352734789843,0.16811934458649969,0.07949132768818606,awake
0.2500162771013738,0.005318385813622484,0.019639328785297387,-0.08468422329862209,-0.07539196057946365,awake
0.25392278143108277,0.015573482955202517,0.10847582515998098,0.24432903263749112,-0.08611999559366776,awake
0.2578292857607917,-0.09389243735422648,-0.0238510700954134,0.07861223665103903,0.190014083722977,awake
0.2617357900905007,-0.17905091810678964,0.12280340001758193,-0.12251944752354128,-0.011174979197518836,awake
0.26564229442020965,0.026629263538003545,-0.17299117723655671,0.08257084799056716,-0.38374194811209417,awake
0.26954879874991866,-0.3394440191662785,-0.07396610281889476,-0.13683286871497263,-0.3176581231063169,awake
0.2734553030796276,-0.15464842202149964,-0.3231607846167472,-0.11133697140175482,-0.34968838034918187,awake
0.2773618074093366,-0.3938734384226492,-0.2446806278962242,-0.3622473265134273,-0.4460816255425223,awake
0.28126831173904554,-0.3670900260158855,-0.3344231179992259,-0.5536911222311518,-0.3424496523343685,awake
0.2851748160687545,-0.17226840269586666,-0.4179686445893277,-0.5064395573055778,-0.26962532710895026,awake
0.28908132039846346,-0.33168683126075027,-0.2250397787511383,-0.328072721255054,-0.41086977036491124,awake
0.2929878247281724,-0.331254757603532,-0.29241782175088016,-0.2558338572225006,-0.29976469406920325,awake
0.2968943290578814,-0.29616657208610225,-0.20874457907106492,-0.41222046979651755,-0.2868317527267801,awake
0.30080083338759034,-0.0036756905993315797,0.12398391470677818,-0.02201811155719456,-0.05752801852960644,awake
0.30470733771729935,-0.11064085071564063,0.1087335170027611,-0.2894560163702299,-0.30615329987988527,awake
0.3086138420470083,0.09114069928771211,0.1058794523067325,0.18137663149911804,-0.16886265348194038,awake
0.3125203463767173,0.18586222970008692,0.14897230199971792,0.17424463906528023,-0.05125669804942469,awake
0.31642685070642623,-0.1665859849706093,0.11424697906332054,0.08824365114052249,-0.1927203388949242,awake
0.3203333550361352,0.16273112825030064,0.07253369534002774,-0.08081175569321607,-0.018633423039303272,awake
0.32423985936584415,-0.23401500936667363,-0.14055136244660987,-0.19364145638533775,-0.3497392977169459,awake
0.3281463636955531,-0.0202354671327341,0.06843598666917712,-0.044992626279861024,-0.08768212725474499,awake
0.33205286802526207,-0.13060673450802562,-0.12187051909519984,-0.004758121534806273,-0.06581787200147649,awake
0.33595937235497103,0.23268082269596524,0.10926425617918922,-0.00037744727755688323,0.02263568825476764,awake
0.33986587668468005,0.10511095153215012,-0.08038780903057074,0.23482230753248967,-0.11502141396572574,awake
0.343772381014389,-0.0785984303821754,-0.2564666967526705,-0.19523025831245522,-0.22982583322968275,awake
0.34767888534409797,0.11267245467273614,-0.10335970654680735,0.038724565343117974,-0.13581250458399688,awake
0.3515853896738069,0.06440667274712489,-0.14184730532509,0.01001024968336485,0.021980185476163067,awake
0.3554918940035159,-0.06542212949859419,-0.21339744573847738,-0.08929524946076124,-0.0019090416104179803,awake
0.35939839833322484,-0.15839184252061833,-0.4659617891934944,-0.022761433067798334,-0.23696613047842555,awake
0.3633049026629338,0.09121898104588128,0.04250666126189355,0.02057203059525352,-0.016637273433818888,awake
0.36721140699264276,-0.09827796286491905,-0.22331550305270426,-0.13944484816521446,-0.31900951630230806,awake
0.3711179113223517,-0.061803012188180365,-0.2517180499602745,-0.020498285149005965,-0.050124573057390986,awake
0.3750244156520607,-0.2733293158817519,-0.33176954689170807,-0.07318253913310688,-0.293136811864245,awake
0.3789309199817697,0.07289087369243111,-0.5377295029046042,-0.22315530152482296,-0.06131960773465453,awake
0.38283742431147866,-0.2989948932639079,-0.47148893158145183,-0.2670571677096416,-0.16288434607974644,awake
0.3867439286411876,-0.1979884484170206,-0.47375966479107545,-0.18340183334299331,-0.2632287099360849,awake
0.3906504329708966,-0.1553006128004058,-0.3039193820586055,0.16519194264704484,-0.05603648494048279,awake
0.39455693730060554,-0.19411060731171828,-0.30704200792713177,-0.215951178871698,-0.12580683087293926,awake
0.3984634416303145,-0.033596357522617186,-0.2614954549178756,-0.31955291019991355,-0.14236861543944196,awake
0.40236994596002346,-0.1298477068230307,-0.1564701549082122,-0.10428702115207694,-0.17728202668361837,awake
0.4062764502897324,-0.0794471344352211,-0.03009583078120493,0.1323493071330456,0.000541696780421104,awake
0.4101829546194414,0.0867440114566076,-0.06726893033550466,0.2746311815692048,0.13252383506611454,awake
0.4140894589491504,0.2497730337607735,0.12503286437390673,0.16523046958645196,0.14468096136578976,awake
0.41799596327885935,0.21948302335906655,-0.03534452575248126,0.2948436042319982,0.15385681233025478,awake
0.4219024676085683,0.07766160289041517,0.06123256886496471,0.08277340318491536,-0.05407604972680616,awake
0.42580897193827727,0.09126612012915353,-0.027992657742542233,-0.11325643386900783,-0.10916238659527551,awake
0.42971547626798623,0.007974142364429934,0.23752058198372744,0.11329649413833526,0.05141610789208394,awake
0.4336219805976952,-0.19227946398705156,-0.1534873139101111,-0.3192696093502404,-0.09374003185029825,awake
0.43752848492740415,-0.09137751779063943,-0.23085517418493928,-0.022265913072278626,-0.2670095626276559,awake
0.4414349892571131,-0.14870364861549287,-0.1702209443827329,0.03660959833985855,-0.29930479808526983,awake
0.44534149358682207,-0.17485178041662025,-0.12537312271989104,-0.18912168689852646,-0.3619145840113758,awake
0.4492479979165311,-0.15503011027359584,-0.08496770669595946,-0.15979399802737485,-0.35295569491239276,awake
0.45315450224624004,-0.3428272879544656,0.08438581180147198,-0.3207734778707553,-0.17496132232676684,awake
0.457061006575949,-0.3639746750583138,-1.530083963353912e-05,-0.16765955753406847,-0.2516136259248717,awake
0.46096751090565796,-0.37285982731172806,-0.25018813481893054,-0.2800589951138592,-0.2853120849867909,awake
0.4648740152353669,-0.18646085497021436,-0.14270031390089932,-0.2352247375490354,-0.34814407539988745,awake
0.4687805195650759,-0.34006951728214674,-0.39353629926347666,-0.20733037165486057,-0.36315391602460423,awake
0.47268702389478484,-0.207850462858083,-0.27072105268297186,-0.18338071234770925,-0.3878273130262966,awake
0.4765935282244938,-0.2450814922263458,-0.12041749914089253,-0.35945245285487026,-0.23961051601462785,awake
0.48050003255420276,-0.20633135021792148,-0.37134844886487395,-0.1259008608605399,-0.2140420110655431,awake
0.4844065368839118,-0.28952230680554153,-0.3999945880902369,-0.5222103850340337,-0.19362203648390497,awake
0.48831304121362074,-0.21167185887187095,-0.23929882830773008,-0.36300609367987335,-0.19877988240985514,awake
0.4922195455433297,-0.20638314074478392,-0.3542222579667169,-0.04515329181711614,-0.2592253249626233,awake
0.49612604987303865,-0.21274297881831214,-0.13119415908982865,-0.18719073983094045,-0.07821867422143114,awake
0.5000325542027476,-0.11649648809182939,-0.23203172606120154,-0.1539233696416534,-0.12996329979230173,awake
0.5039390585324566,0.1291812973423113,0.12586673119262004,0.1559228443830692,0.314610982322722,awake
0.5078455628621655,0.0547485857445395,0.2890778032513887,0.24197850904857413,-0.0589306362064938,awake
0.5117520671918745,0.30034052789734017,0.14899124448119294,0.4006578362047476,0.31217560880726114,awake
0.5156585715215835,0.11601146515964564,0.27788049383245833,0.21106337835934563,0.15927796401817174,awake
0.5195650758512924,0.2673779023238071,0.34842278940480204,0.20221526170510679,0.4094800959104196,awake
0.5234715801810014,0.02225666217397798,0.22700350505533906,0.3929840766808578,0.20892614321877787,awake
0.5273780845107103,0.31140247441687086,0.2258157164173003,0.373935961441158,0.45140094100966965,awake
0.5312845888404193,0.3765690899632035,0.21584832202302162,0.2211717865580811,0.22553133932940944,awake
0.5351910931701283,0.08114685848086536,-0.034224147737982484,0.21738036588955187,0.3673956977247089,awake
0.5390975974998373,0.21930040758228742,0.1276654243699178,0.2240644614609649,0.25001874514183003,awake
0.5430041018295463,0.4095683421162128,0.049932891016361614,0.2458194466154928,0.2884699886664325,awake
0.5469106061592552,0.24375732916268456,0.1696170400231179,0.2873085920062347,0.2003812423408595,awake
0.5508171104889642,0.19476127992762937,0.22337794944138611,0.2702484932292458,0.11725369830149393,awake
0.5547236148186732,0.19499934918826742,0.08638551416561953,0.09080904396992281,0.2009158082629986,awake
0.5586301191483821,0.1828746911970879,0.03261253882615414,0.048007830444300126,0.21765219691411622,awake
0.5625366234780911,0.12109197783223484,0.23716347385607756,-0.1246610713917563,0.24260018009662376,awake
0.5664431278078,0.23667526854692517,0.16186150342518577,0.06574061947531161,0.3316493961820792,awake
0.570349632137509,-0.09400971032263943,-0.029999341860694168,0.023020837582461956,-0.012389589036707144,awake
0.574256136467218,-0.03195138732921193,0.14849040977597963,0.07523721798014076,0.1807967566597956,awake
0.5781626407969269,-0.12349251781411054,0.20112051145068427,-0.16992376426711037,0.1177725816466309,awake
0.5820691451266359,-0.09936795577361954,-0.10647561705393088,-0.037649324518105286,-0.1463277931089155,awake
0.5859756494563448,-0.20628473564272665,-0.12592411233683337,-0.1773114318787233,0.16685412024813984,awake
0.5898821537860538,0.10150370265877606,-0.007946172345014038,0.0023023977757612585,-0.013714205811677427,awake
0.5937886581157628,-0.11970761350426075,0.03155911551919284,-0.20494046774480468,0.009446945110030781,awake
0.5976951624454717,0.035304606157286186,0.1708890323122922,-0.12564067100709508,0.06497359520626589,awake
0.6016016667751807,-0.1102401304204733,0.1869182341767125,0.0009749619147368521,-0.25994372031011453,awake
0.6055081711048896,-0.008677789144119055,0.43671471973320153,0.23733674279182304,0.038108140262028106,awake
0.6094146754345987,0.32919048708507254,0.4432283426144126,0.28757446952192217,0.21791974018281285,awake
0.6133211797643077,0.16257060594695055,0.26997147365311713,0.28623772469093456,0.3261807262720364,awake
0.6172276840940166,0.17479884850750213,0.47402265130481436,0.25570940373565115,0.05881001830810062,awake
0.6211341884237256,-0.046902145314268395,0.3610756116991024,0.09697260769111929,0.24425594006453533,awake
0.6250406927534345,0.1384543975567947,0.34816458117542276,0.09781413200911619,0.16734835965330147,awake
0.6289471970831435,0.13144603172939168,0.36642504501261675,-0.014609035479423889,-0.059199630096657116,awake
0.6328537014128525,0.024361557356279345,0.22488997914222944,0.03921113714198986,0.05191348417129166,awake
0.6367602057425614,-0.07602669271587223,0.08756899886378369,-0.10756429793171592,-0.16095891376116803,awake
0.6406667100722704,-0.11350291462384246,-0.03663696132323793,0.15789467443160293,-0.0723904785047039,awake
0.6445732144019793,0.03611029440441006,0.23095382086856012,0.20597680569731724,0.0027730881251017275,awake
0.6484797187316883,-0.21034791594609936,0.13483133762291183,-0.027415461814327108,0.07157952525388456,awake
0.6523862230613973,0.045759139113329704,0.22810821163209452,-0.0003036442940523021,0.22361585576987852,awake
0.6562927273911062,-0.2064289015924968,0.10273026286954229,0.09438778424019827,0.31987417250187117,awake
0.6601992317208152,-0.013265132077354566,0.16526858174460196,-0.1460911732667375,-0.1172604524760823,awake
0.6641057360505241,0.15775369724132468,-0.08384228988776227,-0.0785385089273163,-0.04468879142509094,awake
0.6680122403802331,-0.054593145046466486,0.010932566272069656,-0.0018724069252620684,-0.11332816699037793,awake
0.6719187447099421,0.07254961804134374,-0.2190714141993314,-0.15316032993914147,0.020117159130649046,awake
0.675825249039651,-0.061188727583889206,-0.19737744451716685,-0.10706935654548873,0.05071808613372308,awake
0.6797317533693601,-0.0761068951862142,-0.029734868861968564,-0.047695456005662294,0.11891926100589634,awake
0.683638257699069,0.06416202393609605,-0.2132478733829236,-0.06241795871337899,-0.1202166528215178,awake
0.687544762028778,-0.04818632315980304,-0.17206682529357947,-0.1672503972093043,0.1579470597877044,awake
0.691451266358487,0.21379991223293845,-0.03960118447654465,0.14430260444439202,0.12059961726099018,awake
0.6953577706881959,0.1034156035235072,-0.04987737007763537,-0.08050570185171117,0.1970705700749393,awake
0.6992642750179049,0.3197554414812375,0.09962355715871023,0.2987939443329929,0.26083254378845167,awake
0.7031707793476139,0.2597551849092145,0.17963975913111996,0.39236617097793125,0.3413976476256658,awake
0.7070772836773228,0.19006850799969394,0.41935856653448134,0.5697255650434072,0.5371984786374046,awake
0.7109837880070318,0.18350418416866576,0.3440273438944454,0.2591354018260178,0.32666857993659315,awake
0.7148902923367407,0.5701085866366051,0.4117650590683808,0.48089446167973937,0.33553730946622634,awake
0.7187967966664497,0.2725056484445926,0.4539027485895557,0.5389708914438183,0.45258977451781296,awake
0.7227033009961586,0.3550065334287713,0.014456536471168568,0.04566501567518855,0.22611640043767156,awake
0.7266098053258676,0.30675150099514426,0.27846424209003673,0.38087208538136585,0.35556282715563503,awake
0.7305163096555766,0.36736448336441185,0.24723877504525202,0.28751164227863873,0.33783384085511803,awake
0.7344228139852855,0.2585025090288351,0.02825647360490139,0.3780320475085337,0.2929872315895484,awake
0.7383293183149945,0.30149917453679154,0.14559453309502637,0.13364505547200217,0.02045041151747834,awake
0.7422358226447034,-0.05848676951850815,-0.02262122412153785,0.042773160920766315,-0.03188397643453085,awake
0.7461423269744124,0.07175368984352193,-0.08764295459152138,0.15788864700090888,0.012871379636312519,awake
0.7500488313041214,0.08703555840318951,0.018967889244638356,0.045517043161591664,0.07803115820390877,awake
0.7539553356338304,-0.15458083226339925,-0.00704571496577629,-0.017598894006439506,-0.09689715293569118,awake
0.7578618399635394,-0.08735036786781827,0.05361577420988771,-0.11177350470282585,-0.1660341565776376,awake
0.7617683442932484,-0.1492526286181204,-0.04412286508989298,0.041493042452929674,0.14404807416937762,awake
0.7656748486229573,0.003305991471528519,0.07586031846389565,-0.04876780855623664,-0.1548265067330309,awake
0.7695813529526663,-0.15439343425107221,-0.14721632066048942,-0.26197985689954784,-0.28309345094778693,awake
0.7734878572823752,-0.4980390432109421,-0.22511606462717948,-0.2623805612520753,-0.3596597611190906,awake
0.7773943616120842,-0.529738671802134,-0.23060907274118575,-0.2887272359812115,-0.2822130081958155,awake
0.7813008659417932,-0.2602603326865786,-0.11608332155906056,-0.45123286628040854,-0.4304592492978169,awake
0.7852073702715021,-0.3121351220829684,-0.14724962893848453,-0.23027335831353876,-0.29335024787096403,awake
0.7891138746012111,-0.4957003205514773,-0.2810124301707798,-0.525219728146078,-0.4361443110217404,awake
0.79302037893092,-0.33562188986410646,-0.28184620704078883,-0.44835301237562825,-0.3551182493901559,awake
0.796926883260629,-0.3118990554728366,-0.09192162857152185,-0.22420522091122483,-0.287044778846439,awake
0.800833387590338,-0.3005419316023932,-0.2998025925586257,-0.19968717773181993,-0.019517574188477438,awake
0.8047398919200469,0.01878167307216117,0.031046379934622916,-0.0008936707869139898,-0.14237623962123439,awake
0.8086463962497559,-0.12008814700280153,0.12947287596101217,-0.058222930697407596,0.07935724242622205,awake
0.8125529005794648,-0.0363233170365608,0.14406187635891293,0.09597610124221954,-0.1107193824138178,awake
0.8164594049091738,-0.006068298844110129,0.10825858624811985,0.19628849084882033,-0.0674298711906599,awake
0.8203659092388828,0.16777483551840894,0.2624741229256941,0.1942876008116577,0.07009508810925921,awake
0.8242724135685918,-0.0387668221828715,-0.03660824250353206,0.05753742790937235,-0.024077339404227127,awake
0.8281789178983008,0.056655974704882636,0.18092833494104735,0.15604871923222208,-0.10688862980285557,awake
0.8320854222280097,-0.04907642086268437,-0.26418154924826315,-0.11298350766764961,-0.18955479325336072,awake
0.8359919265577187,-0.06927927914542369,-0.08725801032646013,-0.2580689331284754,-0.19674601690838667,awake
0.8398984308874277,-0.06105922027239115,-0.3462959960829885,-0.0673592172847528,-0.40780002714225894,awake
0.8438049352171366,0.01183032585080581,-0.05072810428020242,-0.006540533612398317,0.08435681965701607,awake
0.8477114395468456,0.1370221249874249,-0.14501242470241651,0.023703656244933632,-0.10969455200000208,awake
0.8516179438765545,0.06801788870926155,-0.3388783902696666,-0.11117705831183564,-0.1170242405492054,awake
0.8555244482062635,0.08344031248080322,-0.12352712242448279,-0.06589539582332472,-0.13028829376898501,awake
0.8594309525359725,-0.0626201295004416,-0.3986743504321089,-0.23428611171310154,0.017196899758500195,awake
0.8633374568656814,-0.14866028498486838,-0.0483096941063168,-0.2174120583631568,-0.10467127181988385,awake
0.8672439611953904,0.058559204866060616,-0.29936022536741147,-0.025215916032714992,0.03089898379961127,awake
0.8711504655250993,-0.22123619772032233,-0.3965827828169171,-0.16911147618066008,-0.22561794619070016,awake
0.8750569698548083,0.030805684696136468,-0.3485716218140035,-0.022663480678932812,-0.08271057553189962,awake
0.8789634741845173,-0.14152145397877505,-0.517215152923477,-0.2335345420334808,-0.1292259338059347,awake
0.8828699785142262,-0.17779171698680324,-0.2850130119121048,-0.2584379355021798,-0.14565714739754348,awake
0.8867764828439352,-0.12083825072572088,-0.5030791926110926,-0.4159332759949166,-0.2936249118723971,awake
0.8906829871736441,-0.11395471316742511,-0.3419582571593366,-0.10169722154329269,-0.3148701520710712,awake
0.8945894915033532,-0.04146637515784138,-0.17404670127793206,-0.09586360847600976,-0.3244788269389822,awake
0.8984959958330622,-0.10954148141308181,-0.504434718032839,-0.12406868404388116,-0.11886171384942448,awake
0.9024025001627711,0.1987847820724847,-0.11013915055554452,-0.035974210255709516,-0.0137973274905112,awake
0.9063090044924801,-0.041322372235832225,-0.2140981862531983,-0.14896399447683714,0.05875444234074979,awake
0.910215508822189,0.054320058411627264,-0.16976870678869702,0.09471680627145472,-0.029880621580684004,awake
0.914122013151898,-0.061530370594351486,0.18075079689373533,0.051544867379162494,0.03130104009467166,awake
0.918028517481607,0.19547031499383027,0.22842360695289782,0.07146300199025954,0.0657844662568948,awake
0.9219350218113159,0.2362603936466337,0.10994248700078021,0.30584176701187404,0.0075597302844049585,awake
0.9258415261410249,-0.07640743906378647,0.24030299816508732,0.11092013202025326,-0.20326142592199772,awake
0.9297480304707338,-0.027075484998964533,-0.16773013520986896,-0.026650581480209476,-0.1363250244941507,awake
0.9336545348004428,0.01222330243098578,0.0898596496727967,-0.00012134469109779944,-0.2523924833787978,awake
0.9375610391301518,-0.06250178982581087,0.07100024082659154,-0.09932595636839928,-0.16630376978304498,awake
0.9414675434598607,0.011794974662171137,0.06437692111042442,-0.3585860809087407,-0.2766530909078006,awake
0.9453740477895697,-0.0736829908709131,-0.4340967045687534,-0.204499151872374,-0.435827758550845,awake
0.9492805521192786,-0.12145380143600375,-0.06787022239291511,-0.23287469039018516,-0.3116327271071264,awake
0.9531870564489876,-0.28377551594008865,-0.32161179848645505,0.002039570032898952,-0.447805785473256,awake
0.9570935607786966,-0.10738762315725278,-0.17383230197770336,-0.19458744454256194,-0.3770833527462458,awake
0.9610000651084055,-0.3993031753081109,-0.10395784887364018,-0.24578395429903177,-0.27314226328160396,awake
0.9649065694381146,-0.36137020396888225,-0.0879771612755618,-0.22328871716519055,-0.5464816653268028,awake
0.9688130737678236,-0.496208828035441,-0.2564394379640714,-0.3017440835814079,-0.26025210150549233,awake
0.9727195780975325,-0.1142083486359525,-0.04122419996698769,-0.36111854659107334,-0.30955569918076226,awake
0.9766260824272415,-0.3453634714040002,-0.23356619135389292,-0.28896491428863336,-0.3515117826172696,awake
0.9805325867569504,-0.4250701241016759,-0.39692151876450865,-0.2979986737178788,-0.5318471357825141,awake
0.9844390910866594,-0.29379478528229314,-0.4326751946258781,-0.4945441098802512,-0.3831182990395832,awake
0.9883455954163683,-0.1115814198067364,-0.19789067974941332,-0.23745975009790565,0.022910740121435486,awake
0.9922520997460773,-0.4263311884670564,-0.07878383532587577,-0.08291180923579498,-0.03271690722893522,awake
0.9961586040757863,0.09522343241084869,-0.1591289648995955,-0.10364524758197013,-0.010626250991552788,awake
1.0000651084054952,-0.03067467009912146,-0.10082446547187893,0.025404356514678383,-0.1276141968722844,awake
1.0039716127352043,0.13030200569033576,-0.03400925744225462,0.17578403610004192,0.10212982500124868,awake
1.0078781170649131,0.3094503720203282,0.045060245774241336,0.32953060094109027,0.1310689638072708,awake
1.0117846213946222,0.30254062499206863,0.5303421786629807,0.10488877472094954,0.2753011708998724,awake
1.015691125724331,0.41107706436275937,0.49473517268176564,0.4239060562170389,0.26473583400987405,awake
1.0195976300540401,0.29391995084120537,0.32399738455468396,0.40604760178327903,0.44248946312424753,awake
1.023504134383749,0.358918562737568,0.2618287535556107,0.3176842506727729,0.26181410777884645,awake
1.027410638713458,0.31876874583386533,0.21931153130260775,0.21872498364965545,0.25892885664086485,awake
1.031317143043167,0.2964629937899252,0.29473043417151523,0.23354646249680672,0.4632268538860192,awake
1.035223647372876,0.2693995611178266,0.11111911961267205,-0.0035676967093153655,0.23730238341112198,awake
1.0391301517025848,0.12144576666655807,-0.021560583871933443,0.11345646962300077,0.25437685622630635,awake
1.043036656032294,0.3908623292342245,0.1443666269610653,0.16129200433531582,0.2549107557438639,awake
1.0469431603620027,-0.07905453559657233,0.1502325344430825,0.20584820012643532,0.33259929491982404,awake
1.0508496646917118,0.10284513333065395,0.13695429834955436,0.06926889977090779,0.26331578776713144,awake
1.0547561690214207,0.2711944286373681,0.14441937947725886,0.06105371832263841,0.11395549799061849,awake
1.0586626733511297,0.06733436294222195,0.1291874744417116,0.12450259567568903,0.3497626417580216,awake
1.0625691776808386,0.2425217161721514,0.2262682023742305,0.26101082608143983,0.4061984074714632,awake
1.0664756820105477,-0.1248051469500041,-0.11259299044551306,0.11210167196872746,0.16467903011385626,awake
1.0703821863402565,0.10231668295715748,-0.06448043462721208,-0.05781188142755847,0.0863942081097959,awake
1.0742886906699656,-0.09498053702448715,0.0349410921543466,-0.042303639670755996,0.1437774508242658,awake
1.0781951949996746,-0.33771398053658985,-0.3395166677917079,-0.010694098584309489,-0.022236531991192306,awake
1.0821016993293835,0.04368013943119484,-0.08662588163272075,-0.1067066540314617,-0.13564428749794752,awake
1.0860082036590926,-0.40515225695981005,0.013563192111812256,-0.30727190613647914,0.005196119336966662,awake
1.0899147079888014,-0.17241729011582133,0.13618003225894287,-0.044108571621965166,0.21562859264407686,awake
1.0938212123185105,-0.021613350012035973,0.015333042911253491,0.06839457848078233,0.14191018478010597,awake
1.0977277166482193,0.14110839041239365,0.4148812228824542,0.15265036142070784,0.10539415414750057,awake
1.1016342209779284,0.1326785297178124,0.13627848114252278,0.13570933333878157,0.24190039073646308,awake
1.1055407253076373,-0.05347911732597338,0.14117811535816543,-0.008195619748276844,0.08283494911510794,awake
1.1094472296373463,0.22120820681608047,0.47974997618695514,0.1369703307524504,0.35676149018113634,awake
1.1133537339670552,0.14291781517139732,0.4219287395038382,0.20698763258254319,0.14243607696387803,awake
1.1172602382967642,0.30178104998017374,0.44542400079619476,0.4249322594671803,0.29021743699384195,awake
1.121166742626473,0.1749123321981741,0.7284050072323477,0.341339345515605,0.32910848351107047,awake
1.1250732469561822,0.06672443569285813,0.3943036642122914,0.16570059389630037,0.27098339105311586,awake
1.128979751285891,0.12332078240533019,0.2802123913923096,0.08338449056498534,0.13391354226307575,awake
1.1328862556156,0.16663071680487046,0.3429211255568741,0.2191323537848464,-0.012714970481305168,awake
1.136792759945309,0.08896888024335789,0.24594486560819565,0.050620079353741756,0.17766756015767363,awake
1.140699264275018,-0.007041411303580228,0.2329390753588924,0.16786029371168035,0.15940943936293622,awake
1.144605768604727,0.054305905214030475,0.2227896004503993,0.11395117983346777,0.26513132911930737,awake
1.148512272934436,-0.002038354984748615,0.12374124606272288,-0.1763715286548763,-0.1096749786343258,awake
1.152418777264145,0.15068271111401066,-0.055069006185278796,0.016514810335770333,0.05160739348668962,awake
1.1563252815938538,-0.022646775857059365,-0.1007661061409923,0.16908772667763766,0.06971796321314705,awake
1.160231785923563,-0.1092409333859524,0.18697636408402007,-0.06473603535081349,0.14820970044118773,awake
1.1641382902532718,-0.17457766748582315,0.08487835664644983,0.06564167015785705,0.09959646259915081,awake
1.1680447945829808,0.04260505674933775,0.03530550497774774,-0.04292135772539603,0.09754308873310155,awake
1.1719512989126897,0.14100500881119693,-0.07553916041118462,-0.11972052931023809,0.17710044536592984,awake
1.1758578032423987,-0.10772331233914031,-0.2643295692953934,-0.17826437918492105,0.14717760037342087,awake
1.1797643075721076,0.0825385882046867,0.05209294848532384,0.16978696191070913,0.28468619284559993,awake
1.1836708119018167,-0.20277387674974104,0.10627799236562113,-0.10570809669323793,0.025594905582409233,awake
1.1875773162315255,0.0258031687404032,-0.19452114167625678,-0.026289111887820134,0.1799959890049052,awake
1.1914838205612346,0.05603570482452474,-0.05556535082548197,0.10323709842818003,0.14977987222756872,awake
1.1953903248909434,-0.07429509044025936,-0.14052257173334654,0.13741997674158307,0.035246488007403404,awake
1.1992968292206525,0.3192856754632638,0.15320145262791127,0.3857022897323019,0.23440163302504488,awake
1.2032033335503614,0.36132974508234855,0.39946317749403876,0.3229551128102719,0.5516444544515339,awake
1.2071098378800704,0.24243258300163148,0.13324005330287692,0.10507917331037164,0.37186198415949073,awake
1.2110163422097793,0.4913775726661582,0.19910007147923925,0.380494696940342,0.4203954195530859,awake
1.2149228465394883,0.4287948366105105,0.3283895517154426,0.5416381834765748,0.5268298160093912,awake
1.2188293508691974,0.37190470972620426,0.3176742308795418,0.45895321945897466,0.41376655051219197,awake
1.2227358551989063,0.30560463195582166,0.3827302983182692,0.3517509889504541,0.17051634923686268,awake
1.2266423595286153,0.3437317439304598,0.1292243693854203,0.462551953958973,0.19307897110180003,awake
1.2305488638583242,0.25641257592006017,0.10378898214234317,0.13376731548848353,0.2686602055150835,awake
1.2344553681880333,0.2739175736401656,0.1893877765566714,0.11588609965672952,0.3434794106356544,awake
1.238361872517742,0.23348307874417054,-0.05318449599736156,0.06222376568111055,-0.03577044885431577,awake
1.2422683768474512,0.12274947308666316,0.32340863733816316,0.1040573894956069,0.1643688152314795,awake
1.24617488117716,0.15498652671582597,-0.0131674063966528,0.07050128193373267,0.12855023767380958,awake
1.250081385506869,-0.19939780313439862,-0.26613255340177533,0.04687768952031449,-0.19129733233363674,awake
1.253987889836578,0.21606871142441236,-0.11971817438158579,-0.12920228243546666,-0.1365096986891081,awake
1.257894394166287,-0.039255705385450354,0.01768137788233043,-0.2189241701787539,-0.11010982963062411,awake
1.2618008984959959,-0.1632405108129554,-0.0433273982197154,-0.1334798555124372,0.0004747212332350953,awake
1.265707402825705,-0.10542663720167555,-0.0874092810508098,-0.4036181519311024,-0.20876593529579435,awake
1.2696139071554138,-0.33300564251956866,-0.3015808424231753,-0.29217505445507086,-0.2505442473157836,awake
1.2735204114851228,-0.23662695340082812,-0.22210133123117512,-0.26068057032016684,-0.2923107307434253,awake
1.2774269158148317,-0.4602698701005376,-0.18433212863356357,-0.3159719858226727,-0.5518711508178792,awake
1.2813334201445408,-0.32491590278490595,-0.15471060727219638,-0.1940436492671952,-0.08666024586142976,awake
1.2852399244742496,-0.422565807049781,-0.2127010315662933,-0.33484111247100157,-0.28867786615839175,awake
1.2891464288039587,-0.5590790224080935,-0.41729271714080807,-0.44494866365823393,-0.25050586568239464,awake
1.2930529331336678,-0.37488674412444023,-0.37164508278116615,-0.1017730011253232,-0.32599347540865364,awake
1.2969594374633766,-0.12464088059061856,-0.09611922273655998,-0.24869376376114075,-0.38849139060289223,awake
1.3008659417930857,2.757188810525956,2.734831664410264,-0.254727881276743,-0.34564369173525417,awake
1.3047724461227945,2.854598717449553,3.035281060191368,-0.2414658138863099,0.04668409452302319,awake
1.3086789504525036,2.858473156359502,3.0296568998064672,-0.18857366440626563,-0.3042044041118426,awake
1.3125854547822124,2.8766876205888967,3.039231370481144,-0.029820732688836865,-0.11120872208040525,awake
1.3164919591119215,3.0873995433373556,3.0914204246839767,0.3362321181733209,-0.1603010750462226,awake
1.3203984634416304,3.11659308124694,3.052219012525825,0.11491213351557059,-0.09941637868419861,awake
1.3243049677713394,3.0834914576056502,3.1495681732146656,0.01694265069136945,-0.05345865771922601,awake
1.3282114721010483,2.933048817181329,3.034188771398567,0.01666978518320011,-0.1082134786047774,awake
1.3321179764307574,2.9072958870445875,2.8879532940492094,-0.09403203308300358,-0.18286876974263003,awake
1.3360244807604662,3.038943553291966,3.008317048942031,-0.06194976824041167,0.19858249013966114,awake
1.3399309850901753,2.9763960795483144,2.8446326103020216,0.07520303765152392,-0.2079613626320005,awake
1.3438374894198841,2.8408956383992368,2.537726506443334,-0.25257652538621256,-0.3078773028557277,awake
1.3477439937495932,3.169502829775942,2.713625113864801,0.07554648232662085,-0.17424325878586333,awake
1.351650498079302,3.0842135495490286,2.847058044214508,-0.024237497468133078,-0.09183915749361482,awake
1.3555570024090111,3.0864617877469485,3.0586276302983073,-0.07136640014715355,-0.023585274216911478,awake
1.3594635067387202,2.8179478716200763,2.734840562478232,0.1642421329763452,-0.10488263387537486,awake
1.363370011068429,2.872105093862529,2.8240790912368654,0.11088720736309746,-0.08910830393352286,awake
1.367276515398138,2.9804310594868,3.026207694630177,-0.04454238231750003,-0.07803515726864184,awake
1.371183019727847,2.970068071844892,2.564824370979805,0.03571469153671335,-0.12510477045039184,awake
1.375089524057556,2.776168657898844,2.515946311505375,-0.14715632002443255,-0.48283216526505346,awake
1.3789960283872649,2.7673437761987065,2.6763420348015186,-0.1896633943652904,-0.24610786398639173,awake
1.382902532716974,2.6655293940633924,2.4731663843400495,-0.1603223336147202,-0.22441241030016545,awake
1.3868090370466828,3.0198708854182432,2.5118679151060745,-0.20305905963537269,-0.20178998079481703,awake
1.3907155413763919,2.9059217080727855,2.4054501263238257,-0.1670109809411114,-0.26291825731533713,awake
1.3946220457061007,3.0325899487397066,2.868499940888194,0.013817331898103552,-0.038866727220778385,awake
1.3985285500358098,2.9323271553442054,2.8211598738731647,-0.12014422976155334,-0.19498286991712452,awake
1.4024350543655186,2.86578367712512,2.8228553955084306,-0.14867043554457934,-0.027881415804280336,awake
1.4063415586952277,2.9183656750210125,2.7077955211660507,-0.15426018238577402,-0.17462390410966183,awake
1.4102480630249365,3.0347081955319912,3.134292107510013,0.06590456443160739,-0.18363296924763173,awake
1.4141545673546456,2.9967877937947702,3.066580519995323,-0.01406827615890921,-0.1424898157922077,awake
1.4180610716843545,3.1996422887638287,3.3186806071073214,0.21734682148954226,-0.04622272483662241,awake
1.4219675760140635,3.028340531064123,2.9431340888089355,0.1792998766920827,-0.17890797783526144,awake
1.4258740803437724,2.941415875097353,2.9709223108002907,0.01286374982232968,-0.007691216200832018,awake
1.4297805846734815,2.9567945079789566,3.024847992110016,-0.14317376693473874,-0.10198682913350592,awake
1.4336870890031905,2.759872866506532,2.712257252305363,-0.09739000831846215,-0.20546961527419585,awake
1.4375935933328994,2.749264388666702,3.05329692575164,-0.1102407410747874,-0.13729619079861363,awake
1.4415000976626084,2.751377672733841,2.9226327158523087,-0.2975773136262517,-0.27700282634293194,awake
1.4454066019923173,2.6872532064967656,2.742009541567046,-0.3435233211849394,-0.31973649037803764,awake
1.4493131063220264,2.6994907300780526,2.950435593359402,-0.15823704304736014,-0.30051155204741087,awake
1.4532196106517352,2.711584497555781,2.787202109831148,-0.30468296656918914,-0.37615866107023466,awake
1.4571261149814443,2.770311790358512,2.857839867078223,-0.1809372352520276,-0.5603631861848672,awake
1.4610326193111531,2.925493540273023,2.861059853072242,-0.19908910759579757,-0.20565214863439427,awake
1.4649391236408622,2.9354364043006935,2.903996699174819,-0.17970195335623726,-0.021513459065376855,awake
1.468845627970571,2.700729755765901,2.711730194360913,-0.21330726845284445,-0.26604368482678575,awake
1.4727521323002801,2.796656782408972,2.9279675781545915,-0.34760006050415615,-0.3234971815031924,awake
1.476658636629989,2.7250127494363285,3.0036425898158767,-0.2511796389609253,-0.23007571211660927,awake
1.480565140959698,2.6497553554898285,2.6945117973032167,-0.36245702243010175,-0.3585235533279057,awake
1.484471645289407,2.60486096097077,2.6531116777754225,-0.37172625082507504,-0.33033590545519564,awake
1.488378149619116,2.7381429455638084,2.7068918219639815,-0.3407684017334199,-0.30122952544645737,awake
1.4922846539488248,2.7248165228074765,2.67986837434502,-0.11118598711168433,-0.09799016206405942,awake
1.4961911582785339,-0.21076733622569466,-0.022193333991132935,-0.21537162940501892,-0.17573910994672307,awake
1.5000976626082427,-0.07365920775925634,-0.04127222641863387,-0.06308991443012148,0.12606669219968536,awake
1.5040041669379518,0.04042288658501417,0.027556015560714672,-0.0009833711215333774,0.28817936339870837,awake
1.5079106712676609,0.29141661951931425,0.23260814162865287,0.14907383038042116,0.1761429705911398,awake
1.5118171755973697,0.2729703017286288,0.26538537742133433,0.3379694897547519,0.31563894635593365,awake
1.5157236799270788,0.3985426875472692,0.27881204492634576,0.39053137591113146,0.363904655558648,awake
1.5196301842567876,0.36364971521670203,0.2034635984481867,0.4985387636164031,0.36707813607629775,awake
1.5235366885864967,0.5145498305438213,0.23578502389861467,0.5015187858392369,0.2794199604320384,awake
1.5274431929162056,0.3221356843457418,0.27348713955558457,0.5336921812840564,0.22615938789481488,awake
1.5313496972459146,0.16734621086940787,-0.10365058160748578,0.1626794567041856,0.11316170469897238,awake
1.5352562015756235,0.3319675413744025,0.16920363751921003,0.13772373890975978,0.2049233117089,awake
1.5391627059053326,0.03531363617622968,0.025456492710105028,0.19531251417059114,0.35215349902489296,awake
1.5430692102350414,0.11717704261002479,0.16849171451169995,0.0956559961209866,0.2399648524348348,awake
1.5469757145647505,0.2648192294466635,0.22620706606325364,0.36654460584965626,0.28727894139951604,awake
1.5508822188944593,0.17946238039511686,0.3693877877218102,0.06714368020442196,0.3282839510600764,awake
1.5547887232241684,0.16407075738170362,0.13658663473000618,0.2717891680452969,0.30154244902294086,awake
1.5586952275538772,0.011691886280591465,0.015579185159380615,0.11743208144891903,0.25894222853265125,awake
1.5626017318835863,0.05350316646122526,0.005347716770544339,0.14236942867948552,0.22758549529617159,awake
1.5665082362132952,-0.12843605235463956,-0.1827086016162867,-0.07716911508232346,0.3132471314287748,awake
1.5704147405430042,0.217544767987207,0.13968017646404102,0.08060506167390871,0.294738532694513,awake
1.5743212448727133,0.015642305619893063,0.11705246622561405,0.3006343848743819,0.308909048261215,awake
1.5782277492024221,-0.08671454123908338,-0.14057412054633364,-0.05590382615181664,0.037597072436314924,awake
1.5821342535321312,-0.14674694862091014,-0.08860514550526377,-0.35457757435267234,-0.07539309920810255,awake
1.58604075786184,-0.15087495292790631,0.07626746704076254,-0.060279966004052915,0.11304977891032367,awake
1.5899472621915491,-0.2792182463425169,-0.07510776231600902,-0.04715740936876682,-0.0253174010810748,awake
1.593853766521258,-0.10375596391212351,0.014131026798067655,-0.21502879721287851,0.008850809014313624,awake
1.597760270850967,-0.034149266029173314,0.1357854128019539,0.004641176311604989,0.03655937135389317,awake
1.601666775180676,-0.10363511960925757,0.19953037166597493,0.19666563940623427,0.2313287026442875,awake
1.605573279510385,0.4433770669958024,0.19537868085344812,0.15733283927792316,-0.0068258301153210355,awake
1.6094797838400938,0.08860413904133778,0.342410294066536,0.2620576577928075,0.0687446359552572,awake
1.613386288169803,0.2847937840933823,0.5717552441396139,0.1786220700486375,0.155988440749471,awake
1.6172927924995117,0.06766056347657907,0.671905187570105,0.2208586739203554,0.2699367684797176,awake
1.6211992968292208,0.06793208382223669,0.4077376487863899,0.19403857877070668,0.12048601596899433,awake
1.6251058011589297,0.03476902440887236,0.3039356392939731,0.07262453147242219,0.18472046829658217,awake
1.6290123054886387,-0.10059190465639291,0.3133926128696717,0.1544709187865856,0.0698146607621861,awake
1.6329188098183476,0.12204536414684372,0.21541440491499858,0.11864139474640349,0.08539445534470977,awake
1.6368253141480567,-0.018940337869146284,0.22291777287022632,0.11463286819604195,0.017548453437925757,awake
1.6407318184777655,0.1464493147294805,0.29449784378223515,0.09555492407832793,0.16213456780514823,awake
1.6446383228074746,-0.05259828272141314,0.2871930514217719,-0.09101534704127462,-0.06001476085870433,awake
1.6485448271371836,-0.005153810020818154,0.22266801809322928,-0.006354547039402553,0.021899813257551803,awake
1.6524513314668925,-0.04155651884026569,0.23919609175511103,0.12374801357325484,0.10375406613731432,awake
1.6563578357966016,-0.061477090962027296,0.2185157818089391,-8.090350998573442e-05,0.059237127774814206,awake
1.6602643401263104,0.09514570886878951,0.3299090563332403,0.06059250905522188,0.10308912053116082,awake
1.6641708444560195,-0.05303810633232128,-0.03554479521442094,0.046822928614699506,0.27183561065061534,awake
1.6680773487857283,-0.2374818088434501,-0.001397658860154867,-0.06815588523855778,0.10418292817170483,awake
1.6719838531154374,0.013054618161147488,0.1533899204314238,0.10607630146430817,0.21773033350235868,awake
1.6758903574451463,-0.17447068512201946,-0.02535024388603304,-0.08462684138880129,0.26056980651729456,awake
1.6797968617748553,-0.10019011519087982,-0.07020797832150176,-0.012216898863137864,0.11196881253699309,awake
1.6837033661045642,0.15183412596867008,-0.020062446029867426,-0.11986739561570081,0.052419379142057944,awake
1.6876098704342732,-0.35142969191623136,-0.2229341240339177,-0.04131561109472639,-0.0007161686237641962,awake
1.691516374763982,-0.09345084965291187,-0.13372456440570452,-0.009951080893516678,0.12093823865814401,awake
1.6954228790936912,0.011578457549391394,0.1312375116576858,-0.013739582507117404,0.4049989719657906,awake
1.6993293834234,0.2600964925992344,0.15379118745678558,0.10536003235556227,0.4464396779473292,awake
1.703235887753109,0.33546628459322464,0.1769015135244092,0.3636993634785443,0.2032617490393281,awake
1.707142392082818,0.28931242308391114,0.29301668792225005,0.4209166945929545,0.4030077269993539,awake
1.711048896412527,0.32168249280109695,0.306143231192163,0.4398490699996558,0.2907153080046064,awake
1.714955400742236,0.530326361289299,0.2747723254702581,0.29513405405849125,0.38443164132316027,awake
1.718861905071945,0.24719899751019053,0.3118027563584452,0.3652476617946139,0.5261893322890189,awake
1.722768409401654,0.30004583751567065,0.29889505427734514,0.2776268976056239,0.18559297675311867,awake
1.7266749137313628,0.4389585840545552,0.2773756196971716,0.47105356073038296,0.37399198428061214,awake
1.730581418061072,0.14016228736154127,0.23010276778292243,0.30267089395589963,0.058997448716187506,awake
1.7344879223907808,0.032115725693035974,0.09628771622326755,0.330162020858628,0.22034848929289028,awake
1.7383944267204898,0.23636910521096133,0.38017710208425476,0.10354824467443467,0.2210026785510596,awake
1.7423009310501987,0.06916064101303354,0.14024320379028588,0.1782393195527105,0.038576589507601816,awake
1.7462074353799077,-0.09198001195843694,-0.004793387092368023,0.04308780332642508,0.11686939807066528,awake
1.7501139397096166,-0.04817739074183666,-0.06686052182629193,0.023728784844301923,0.17471805213435268,awake
1.7540204440393257,-0.15133293739145928,0.07516012497176587,0.024376826879569956,-0.11710242516677871,awake
1.7579269483690345,-0.07037994669882376,-0.21352381074452972,-0.008878137381507,-0.14466787655547947,awake
1.7618334526987436,-0.22946350999854587,-0.08941937273441512,-0.14348486656543097,-0.02681407483580464,awake
1.7657399570284524,-0.2417666840819465,-0.10993437099152517,-0.17332949910740147,-0.2176306674724053,awake
1.7696464613581615,-0.19253485584306873,-0.19708357516399,-0.19165218530266173,-0.22783059805430483,awake
1.7735529656878704,-0.1939827793972878,-0.17218654562594238,-0.29755684160443463,-0.17332515940256243,awake
1.7774594700175794,-0.6174119865484077,-0.3268464764650716,-0.43193199256525716,-0.5186966966342019,awake
1.7813659743472883,-0.35737791422869297,-0.1897050327437983,-0.2733021136285046,-0.402092161349731,awake
1.7852724786769973,-0.4044915660999093,-0.2261150015975077,-0.30441219016203125,-0.216015611788278,awake
1.7891789830067064,-0.4795442021964092,-0.5474914609786361,-0.41704174120293275,-0.46755242471112557,awake
1.7930854873364153,-0.3325239851462231,-0.2331023726235189,-0.3489314809042366,-0.29135815533480103,awake
1.7969919916661243,-0.20029236249953503,-0.1567923606981645,-0.25768867490361963,-0.21655477009432378,awake
1.8008984959958332,-0.06730525393806666,-0.12418927433054895,-0.1470944291317079,-0.18616229494484898,awake
1.8048050003255423,-0.09481969922193018,-0.051079228420174615,-0.1535941110158445,-0.15411703217572892,awake
1.808711504655251,0.12161513039465019,0.17564050765081035,0.19497960904737102,0.02281602845673826,awake
1.8126180089849602,-0.09621383692772573,-0.016495701889835207,0.017398620726656468,-0.25770014114351697,awake
1.816524513314669,-0.02312910694773486,-0.09583642573286838,-0.0227929159280907,0.029323361929484704,awake
1.820431017644378,-0.048582365995980537,0.0015225107703742517,0.12527256324049046,-0.13294158186272284,awake
1.824337521974087,0.11717685494644337,0.14881200226859093,0.1941500156119439,-0.1484511097634562,awake
1.828244026303796,-0.045712792957789614,-0.10608691432680131,0.06220493088492181,-0.06495912973349874,awake
1.8321505306335049,0.014118068627056453,-0.2226854630626128,0.001978375977315802,-0.2042996509734462,awake
1.836057034963214,-0.05897106966961868,-0.24624585778395194,-0.06210919908590066,-0.06351111200860397,awake
1.8399635392929228,-0.0014917115735738687,-0.2890031565196907,-0.13183204992147482,-0.2963930677392892,awake
1.8438700436226318,0.033895242734117495,-0.19593885598104382,0.011164306497321155,-0.13353759125196238,awake
1.8477765479523407,-0.06295682264276256,-0.28183908972904936,0.07482199419534136,-0.12266883537130094,awake
1.8516830522820498,-0.028348844197610426,-0.21370536334225101,0.027583314394843628,-0.08757821192590859,awake
1.8555895566117586,-0.1135904761525981,-0.36346310880336025,0.03196454260336952,0.00722460673515668,awake
1.8594960609414677,0.09306140418873746,-0.18385637521373482,0.06828776465202246,-0.2616233811096589,awake
1.8634025652711768,-0.07963884929482248,-0.28596957519774424,-0.19050539276726555,-0.10571845789535536,awake
1.8673090696008856,-0.016776132340188314,-0.33171069530831565,-0.11746406498889714,-0.052250710910757045,awake
1.8712155739305947,-0.10260050695992885,-0.2274309609416837,0.016583410187082884,-0.09266391948051211,awake
1.8751220782603035,-0.2714041623191454,-0.3726403671242515,-0.20845540311379276,-0.14038461310922434,awake
1.8790285825900126,0.049494736325317215,-0.3907016379401697,-0.1512964777207423,-0.21250868362234338,awake
1.8829350869197214,-0.1944488296155933,-0.41245102150174634,-0.1600511805380613,-0.12860475547408196,awake
1.8868415912494305,-0.32204432606590855,-0.6733946079862546,-0.5068979904540086,-0.29235715353180525,awake
1.8907480955791394,-0.13412972189100505,-0.4428080109442439,-0.2399982133834658,-0.20953134400428208,awake
1.8946545999088484,-0.22535284053469778,-0.3229422547294533,-0.08194370136289797,-0.21224478857725496,awake
1.8985611042385573,0.15295654657668736,-0.1173179717699261,-0.03379827706299533,-0.15041330670257874,awake
1.9024676085682664,-0.15730814453977068,-0.21015449907070777,-0.12914030243161206,-0.24691722514570036,awake
1.9063741128979752,0.35900807574954247,-0.002466434989497411,0.052272140745328474,-0.04996740408044999,awake
1.9102806172276843,0.10892854922519463,-0.2829277785517089,0.4047421033936993,-0.014301623727288881,awake
1.9141871215573931,0.08610489100193403,-0.025562129686503426,0.1573911976653809,-0.019762088246349237,awake
1.9180936258871022,0.07704068249507433,-0.11284623119637975,0.007205328063667582,-0.16375742194173395,awake
1.922000130216811,0.15786817945217538,0.07386592670011223,-0.08136417514145372,-0.09631330298949568,awake
1.9259066345465201,0.08933531028292323,0.15557187674432857,0.16713587923111192,-0.26788678227810403,awake
1.9298131388762292,0.17212823422335377,0.016619376515529208,-0.049380501691477965,0.08965133678797482,awake
1.933719643205938,-0.1097593009258574,-0.1453487156415497,-0.03844188493380908,-0.2954749930122407,awake
1.937626147535647,-0.14791598624972174,-0.16467697350123495,-0.15456389549427094,-0.40123956879024014,awake
1.941532651865356,-0.016498751899806187,0.056271376952803716,0.04168652179805374,-0.01887822568860438,awake
1.945439156195065,-0.11711534244681712,-0.09017493709936755,0.038033021066234046,-0.33727605344067413,awake
1.9493456605247739,-0.20054049524416043,-0.03974760901757689,-0.16662145111081358,-0.2721846252486129,awake
1.953252164854483,-0.26802826620419784,0.020576509143270222,-0.2306408899466378,-0.39965260998999874,awake
1.9571586691841918,-0.24838916083365425,0.05254764373742313,-0.07190511926216493,-0.2988337853596754,awake
1.9610651735139009,-0.33732506467803813,-0.19781445622139643,-0.2984551996065816,-0.335986737705072,awake
1.9649716778436097,-0.3137266440348033,-0.19985609026085197,-0.24616177976306772,-0.16963251061083273,awake
1.9688781821733188,-0.38773794073246814,-0.3859344355620849,-0.23105568585130964,-0.29014221178262145,awake
1.9727846865030276,-0.36845873631125675,-0.2107970551170089,-0.38712239532959636,-0.34228523660768534,awake
1.9766911908327367,-0.41156622799953996,-0.30734468106401136,-0.3435311590783411,-0.4505709460317621,awake
1.9805976951624455,-0.5318444815046993,-0.5202387582792126,-0.2872621557545329,-0.4483343837756868,awake
1.9845041994921546,-0.3151093578408888,-0.22546824338792137,-0.24499177757820073,-0.3400216393868145,awake
1.9884107038218635,-0.4346369186267679,-0.15181738101920478,-0.17058740753476048,-0.27557305755852246,awake
1.9923172081515725,-0.3510766716965805,-0.17123977636449095,-0.0005905067257182817,-0.1820652570948031,awake
1.9962237124812814,-0.018714844311466583,-0.2837716208274358,0.20341295001684118,0.01230223568601177,awake
2.0001302168109905,-0.029706663835289818,-0.05815885794036106,-0.10824730811725877,-0.09660034850111592,awake
2.0040367211406993,0.21580436607186046,0.08602383407591029,0.109282839437835,0.22674774836605818,awake
2.0079432254704086,0.24233257585182877,0.06626987307910173,0.2497204719787884,0.045451450200775234,awake
2.0118497298001174,0.3459132846742172,0.2792661545638966,0.27525943349672294,0.12999314436931508,awake
2.0157562341298263,0.2839283150945641,0.34036261239094767,0.3393693147633495,0.3172429810079167,awake
2.019662738459535,0.3736971095686148,0.27590745977560366,0.2577973811190713,0.33055085415770447,awake
2.0235692427892444,0.5488322765074278,0.297959662122801,0.5171821540179276,0.3037768899624903,awake
2.0274757471189533,0.33192953578342,0.14892631753207272,0.16181223933572447,0.3653781551113245,awake
2.031382251448662,0.31484270693125394,0.23356888565849818,0.15289204054138103,0.5946584447327574,awake
2.035288755778371,0.25249021157395407,0.1855905352535198,0.3331979890891584,0.29271751785357514,awake
2.0391952601080803,0.40346567921759646,0.07755874105825145,0.32133963819478045,0.33811905040144685,awake
2.043101764437789,0.15396596507283103,0.2785218366254927,0.2079290439262275,0.3296484138454846,awake
2.047008268767498,0.26718735383336945,0.055501500340692844,0.2687868829215675,0.31413716307210315,awake
2.050914773097207,0.24865544976206863,0.12588514865523892,0.11439353879183213,0.36826982088646953,awake
2.054821277426916,0.19845017441944618,0.2453319943353361,0.27994682542066024,0.28286122247521756,awake
2.058727781756625,0.18465959411145316,0.09610871181160406,0.22070167502056282,0.48900649396264184,awake
2.062634286086334,0.25895296262643736,0.24880207357635514,0.05590513736445264,0.2286372128294905,awake
2.0665407904160427,0.25334749352624825,0.38403182535581804,0.18760761584376912,0.23884122592786075,awake
2.070447294745752,-0.04644708168811003,0.09952206130681451,0.030984351013129484,0.2813842169556877,awake
2.074353799075461,0.07355826421473374,0.18429322032184298,0.15345945708688669,0.09316454348284677,awake
2.0782603034051697,-0.07013495611556658,0.022904483591321426,-0.15400819852649575,0.1813716159776054,awake
2.082166807734879,-0.01691830823340007,-0.037566510269822204,-0.13252999037210864,0.11479117164087842,awake
2.086073312064588,-0.130549742320153,-0.2328751978193601,-0.08911387345870522,0.06032164463252554,awake
2.0899798163942966,-0.1762577772053754,0.10756351663517637,0.06443296829733637,-0.021863047860098336,awake
2.0938863207240055,0.20045182457165694,0.039122807770232956,0.03567611085256264,0.2536027813926291,awake
2.097792825053715,0.07945529771339827,0.00293607028345208,-0.02141107714114907,0.04028423559317444,awake
2.1016993293834236,0.055292772566728925,0.1884424933029476,-0.004592854981659719,0.08949694141664696,awake
2.1056058337131325,-0.0445522918463542,0.4531176019674165,0.270467221938397,0.25492110295616,awake
2.1095123380428413,0.0437999845352586,0.18759815948051123,0.029820237111426562,0.21496780123826492,awake
2.1134188423725506,0.21685128004266854,0.4360416455128838,0.22125739300013575,0.1698322552655725,awake
2.1173253467022595,0.07588824485680408,0.3659366585862576,0.2049161379916852,0.13344994921972891,awake
2.1212318510319683,0.20124785775163728,0.4822677600179637,0.22990961659545467,0.1421597244618637,awake
2.125138355361677,-0.08294891454358551,0.39700501559742196,-0.021148566489363564,0.01835260902301569,awake
2.1290448596913865,0.1861204611492902,0.20266229591007745,0.22449174692311397,0.09716464902177317,awake
2.1329513640210953,-0.07997996746874955,-0.005554646536210156,-0.08386042691228152,-0.06408569117913579,awake
2.136857868350804,-0.11644423457992414,0.23126224248605895,0.07526072307553996,0.10232774013755605,awake
2.140764372680513,0.02715125811574965,0.3393302698855846,0.013390962716970102,0.14300176525052566,awake
2.1446708770102223,-0.08188905114658664,0.07465797597613386,0.007241325633903187,-0.04535004394213893,awake
2.148577381339931,0.09959005580896664,0.04742584919475541,-0.05643359587855779,-0.023431529871095376,awake
2.15248388566964,0.039361425059623555,0.1250727355595806,-0.009685992041754313,0.13676669598515184,awake
2.1563903899993493,-0.10479978286862486,0.1839665671556478,0.04430138159415544,0.06799982117923835,awake
2.160296894329058,-0.011241310191050746,0.16482377178080151,0.026023456927101292,0.05033861117598597,awake
2.164203398658767,-0.14230317667341905,0.032010593247854664,0.019973929504977363,0.14533601009101949,awake
2.168109902988476,0.11696152386349562,0.13239998703196096,-0.045770705857786545,0.3238709903244107,awake
2.172016407318185,-0.028264286653245332,-0.11477906662817225,-0.23916175804211665,-0.056790335708198136,awake
2.175922911647894,0.06144943333707972,-0.17414357069465097,-0.056948026389390144,-0.056168300710198044,awake
2.179829415977603,-0.3038136682513233,-0.002316357106858735,-0.1349193032066933,0.18045815289916634,awake
2.1837359203073117,-0.05603171783128331,-0.34754687194292133,0.0505010292919235,0.20434491836915158,awake
2.187642424637021,0.11093053313324598,-0.17562779058037672,0.02429299500491813,0.31774165522884723,awake
2.19154892896673,0.13120835154922633,-0.07651297352951397,-0.013084013978655246,0.05129287607806102,awake
2.1954554332964387,0.05530173036400802,-0.055340040921095096,0.22570653408454402,0.29626145764551315,awake
2.1993619376261475,0.4145921103645584,0.07438753271753895,0.1434582852533409,0.29208362369337904,awake
2.203268441955857,0.39010221626836367,0.2753464844743233,0.26479117568612864,0.2849000073345883,awake
2.2071749462855657,0.16552237595534336,0.5836833713519701,0.3633040452047457,0.15416043519700406,awake
2.2110814506152745,0.5198704330997773,0.3879971277507482,0.2339319748404265,0.4310531262094143,awake
2.214987954944984,0.44538714290987735,0.48231366307464585,0.23061028826527913,0.3843961739030911,awake
2.2188944592746926,0.5367223870140425,0.422704340191757,0.5105755912018911,0.4842223719593088,awake
2.2228009636044015,0.3606419395023413,0.2590388447524858,0.24737019856828074,0.5526245052747838,awake
2.2267074679341103,0.1698693891477325,0.033680355101424114,0.41781054479616314,0.28391197641467286,awake
2.2306139722638196,0.3102248907020489,0.15574089006300185,0.185062004990661,0.003765355210634369,awake
2.2345204765935285,0.1022550698995097,-0.08458688205062216,0.20872624784070476,0.1491154863616868,awake
2.2384269809232373,0.017352416106099583,0.24139371647712132,0.10549987582373582,0.23053506387969758,awake
2.242333485252946,0.09548867751022615,0.08392275593606267,0.2221409792299055,-0.0600783284572763,awake
2.2462399895826555,-0.06923225348469991,0.0026478516631129115,-0.0014341718816911183,-0.07889986945326383,awake
2.2501464939123643,0.05454783720669848,-0.2530787661018047,0.08626262776682603,0.08770730080422023,awake
2.254052998242073,-0.0027160200725382666,-0.014113183065616059,-0.17894701633660398,-0.0349527573017413,awake
2.257959502571782,0.09827365844268607,0.03831325799827791,-0.3124066733887807,0.005724509517222115,awake
2.2618660069014913,-0.05448446378111943,-0.10915653066195588,-0.1096179905119259,-0.2679920081547662,awake
2.2657725112312,-0.08176948055652938,-0.12963726277890997,-0.1681729094359407,-0.16679276925783587,awake
2.269679015560909,-0.11591847085518742,-0.07469396381806817,-0.18764200120157484,-0.14954130265797805,awake
2.273585519890618,-0.19060876887560824,-0.41299648078718365,-0.1293048203966614,-0.13350666669051925,awake
2.277492024220327,-0.2660348671068453,-0.2647302663849155,-0.3414981756869409,-0.40348060285930787,awake
2.281398528550036,-0.5796322648378631,-0.21781123224724017,-0.3397327829264182,-0.566082563550639,awake
2.285305032879745,-0.47460850521626385,-0.4687969468867502,-0.2783649435758242,-0.46789362681735513,awake
2.289211537209454,-0.463819627020613,-0.4174036474189537,-0.38827703612514786,-0.4169096640975342,awake
2.293118041539163,-0.27384349604617775,-0.07217442719039341,-0.44998789593606225,-0.40227497378957827,awake
2.297024545868872,-0.25653487468120956,-0.4216670246130695,-0.2974508250536965,-0.3140353386749227,awake
2.3009310501985807,-0.08804300061978584,-0.12675613865654714,-0.1280234200704854,-0.32321212595572596,awake
2.30483755452829,-0.1646624293077295,-0.04670992673131275,-0.04726725787927405,-0.21864683274794516,awake
2.308744058857999,-0.14762322471170272,-0.06831978600764499,-0.017518065367965956,-0.01911521150742357,awake
2.3126505631877077,0.039052559383505527,0.15383092059749376,0.023311634853508737,0.0016220878809199146,awake
2.3165570675174165,0.07480187908144585,-0.0006261509915721081,-0.04537000951372552,-0.0391433764804381,awake
2.320463571847126,0.07023357458610759,-0.005913100047966219,-0.0038861466453071203,-0.007176120119849371,awake
2.3243700761768347,0.08287885373078939,0.28242108796705684,0.2228919600280693,-0.10707532229972049,awake
2.3282765805065435,-0.12318603974358178,-0.23181097934770262,-0.1380862291936844,-0.1964255409246641,awake
2.3321830848362524,-0.14555229035316425,-0.01295358047015463,-0.3479159858067432,-0.19004069917840055,awake
2.3360895891659617,-0.09802402820541771,-0.07302046323632592,-0.052163450165593005,-0.14418872231440194,awake
2.3399960934956705,-0.1449992076445683,-0.13044649396487878,0.038395308078347054,0.03701496624449868,awake
2.3439025978253794,-0.11664126069469763,-0.2423944024849527,-0.1528354740847091,-0.18257781535263112,awake
2.347809102155088,-0.01928097820696459,-0.16346384633439648,0.05223015269252504,-0.03586647544516027,awake
2.3517156064847975,0.052813721061726326,-0.1957122806343839,-0.0675494857937669,-0.2096682762687651,awake
2.3556221108145063,-0.0889877672793972,-0.07323073925460248,-0.017009205960661352,-0.19833330913670694,awake
2.359528615144215,-0.03662670721193171,-0.21864429704278837,0.03169224755763707,-0.16628006144179466,awake
2.3634351194739245,-0.14599452757082518,-0.30883813474820215,-0.04575081106273642,0.004775563534834604,awake
2.3673416238036333,-0.0866561703748781,-0.2756657639564138,-0.01751602869639031,-0.075891025496955,awake
2.371248128133342,-0.1826190866671002,-0.4552228807125412,-0.12232588047691098,-0.2946853339760394,awake
2.375154632463051,0.02210354563212938,-0.24037341651203853,-0.11487998231169474,-0.03748202769806451,awake
2.3790611367927603,-0.22514291318598348,-0.40184990229083595,0.027334217433642755,-0.17681950395386362,awake
2.382967641122469,-0.15154187964858754,-0.2561435555295043,-0.2003161349125363,-0.21024696168394613,awake
2.386874145452178,-0.2809629155601573,-0.4645130264034592,-0.14586361674193826,-0.30707592677823664,awake
2.390780649781887,-0.16883147590604633,-0.42597255770957904,-0.10519619013300142,-0.055867792306801785,awake
2.394687154111596,-0.14146794313847266,-0.18040965739810574,-0.00980686698636371,-0.22739978643666764,awake
2.398593658441305,-0.1767361165146014,-0.3012982379641169,-0.059896961333936474,0.21669437377824066,awake
2.402500162771014,-0.0017350430899496158,0.21559178452308092,0.10067227280207248,0.09437997536878354,awake
2.4064066671007227,0.09638683652982528,-0.0032768676417165715,0.03636322359226577,-0.17227891072474696,awake
2.410313171430432,0.044280430803831705,0.04799111563453254,0.0432324870031985,0.2467526888397611,awake
2.414219675760141,0.19879956567777057,0.2227721443601805,0.1461594870032482,0.06035669943190894,awake
2.4181261800898497,0.29387166221628047,0.16629048043309844,0.0403455061574564,-0.08233307040209742,awake
2.4220326844195585,-0.05506546886645815,-0.0078074097615372425,0.14179399461772463,-0.16883918660432115,awake
2.425939188749268,0.03778857944282608,-0.09216515686972135,-0.07191066090938072,0.0061780918746415225,awake
2.4298456930789767,-0.0853390094235991,0.03654563104294436,-0.10007428058344672,0.027323065416274717,awake
2.4337521974086855,-0.06491640437395968,-0.07742754441591874,-0.07148266176238981,0.019222040136266133,awake
2.437658701738395,-0.17141988822340457,-0.08004810361805897,-0.014090731527138606,0.0363032145337151,awake
2.4415652060681037,-0.13066428650156756,-0.22695157734737015,-0.10866838082546099,-0.20637277683159203,awake
2.4454717103978125,-0.13901825474225615,0.009944904565133403,-0.18806305246868907,-0.2466409158502338,awake
2.4493782147275214,-0.26708991333930665,-0.18044889962581073,-0.1788377446864462,-0.26363317974497735,awake
2.4532847190572307,-0.19140116127458368,-0.1001913006506785,-0.27485478424995274,-0.47099007327556397,awake
2.4571912233869395,-0.35361138355374067,-0.10876657859261758,-0.2565223541310383,-0.3765330394712853,awake
2.4610977277166484,-0.05589953600978967,-0.11836002702079892,-0.17712130236068396,-0.23780849717638755,awake
2.465004232046357,-0.1366617459382053,-0.029004295556014192,-0.18785366905514142,-0.287430157536691,awake
2.4689107363760665,-0.37725901386307453,-0.17277772652639098,-0.21958630578791818,-0.48767422454462117,awake
2.4728172407057754,-0.34423958249110714,-0.25326633206725524,-0.30312303080224146,-0.33351966444963715,awake
2.476723745035484,-0.197175250954994,-0.0972515040426031,-0.3000141200586334,-0.31707947708711454,awake
2.480630249365193,-0.36446220719770445,-0.3981427778097036,-0.13483820203217278,-0.19538892628350202,awake
2.4845367536949023,-0.29087896736005175,-0.3291402728334051,-0.32784383893475283,-0.3796959318125485,awake
2.488443258024611,-0.3393690862190607,-0.22548825062023137,-0.3433788741307878,-0.32231698846140855,awake
2.49234976235432,-0.33763157484341083,-0.29608239783234325,-0.3911313534954344,-0.1278560570250401,awake
2.496256266684029,-0.13807096810358446,-0.12369768421826308,-0.21219633280254296,-0.20056585104856478,awake
2.500162771013738,-0.025538592777210125,0.07372387722246568,-0.016582664639762476,0.19759638159427115,awake
2.504069275343447,0.050323892726598894,0.19643985662625402,0.14191135642200953,-0.043139298602447154,awake
2.507975779673156,0.18674793072885387,0.34274017493345227,0.15447855893045925,0.22755178369926155,awake
2.511882284002865,0.35509648157397433,0.19783403597623744,0.19590779841423317,0.03558740125318283,awake
2.515788788332574,0.487611994472535,0.44680080923606946,0.36199194815559305,0.3774038651988547,awake
2.519695292662283,0.4666305933848217,0.34568652440820935,0.3296796716377267,0.31111463091391467,awake
2.5236017969919917,0.3533970923456551,-0.04304234380320385,0.10190325944255285,0.4051893130030368,awake
2.527508301321701,0.6228486723439464,0.11405254979904403,0.3103864082532091,0.15274922458742293,awake
2.53141480565141,0.5535980006032343,0.3179247593427203,0.38970986089824544,0.5883769257357034,awake
2.5353213099811187,0.20503419510490575,0.037471426563278634,0.18528165671370925,0.21635143638031828,awake
2.5392278143108276,0.35628186768191444,0.1632630846016161,0.22959660947584773,0.20113359681722998,awake
2.543134318640537,0.5080760204977356,0.3803442716977189,0.38567156041596323,0.48302708603416933,awake
2.5470408229702457,0.4006594058756107,0.2155294121266903,0.20500723444877686,0.4184723969164658,awake
2.5509473272999545,0.3010256490924216,0.07246771280467512,0.17844024915378667,0.19177816178954424,awake
2.5548538316296634,0.097652180839306,0.24894690118430307,0.23995931630118755,0.26373918935549134,awake
2.5587603359593727,0.029437367702687733,0.19310355380325156,0.21880454976191085,0.3556643090836562,awake
2.5626668402890815,0.2585623388670988,0.16324139486153647,-0.02069152266790847,0.09988284784120377,awake
2.5665733446187904,0.14177589415505992,0.040353685835768226,0.17061835415753424,0.046936074914833065,awake
2.5704798489484992,-0.07382515370867059,0.09361675010689643,-0.17844850859575614,0.024259793146667624,awake
2.5743863532782085,-0.050241615098456455,0.032511559946738905,-0.061584093473615154,-0.0073767372836229805,awake
2.5782928576079174,-0.07566861770029201,-0.08481657353366018,-0.018360993927025615,-0.008370645845229976,awake
2.5821993619376262,-0.11068985951592153,-0.35480585574278306,-0.11807483573781867,0.13743132559841165,awake
2.5861058662673355,0.06295705273872808,-0.08816476513717861,-0.11668207547273202,0.22305706462300084,awake
2.5900123705970444,-0.18659825750978176,-0.020152766387432394,-0.06559192008151353,-0.19379382532528971,awake
2.593918874926753,0.013959138348438933,0.12436666492405846,-0.049716531140729645,0.062265230488992115,awake
2.597825379256462,-0.0945584960967991,0.21256468142186796,-0.12049753251815969,-0.028172314297074286,awake
2.6017318835861714,-0.03030286402024695,0.195055549726429,-0.11743283671454585,0.006110095610801225,awake
2.60563838791588,0.21975859741474219,0.32529486601743907,0.1717625698976301,0.21245444091121996,awake
2.609544892245589,0.2756837006266154,0.5000665661529284,0.16971419037995147,0.2968954486984329,awake
2.613451396575298,0.3098894386304909,0.4870624921744683,0.44028373901948553,0.15006284986050156,awake
2.617357900905007,0.22480503277071245,0.30611033846728575,0.0546466859685637,0.14257310251259647,awake
2.621264405234716,0.25258127918623335,0.3711598439782993,0.25632443435446217,0.361035987045538,awake
2.625170909564425,0.2238300521817949,0.4041245012941765,0.18760266073449972,0.2287363117023422,awake
2.6290774138941337,-0.035988649919584295,0.1579694360188607,0.07486028407648994,0.1909230394900586,awake
2.632983918223843,-0.012378696174523703,0.2354377406485947,0.06616960492402568,-0.003509059988908353,awake
2.636890422553552,0.017653462456442837,0.3426354779531815,-0.0045611715168130534,-0.024546267462629,awake
2.6407969268832607,0.03941678452486705,0.09860122712267994,-0.08852110976190736,0.02793232748624319,awake
2.64470343121297,0.07948794227385153,0.23745577025132938,-0.03004489418159169,0.09255823811348829,awake
2.648609935542679,0.1960083889092879,0.17061537161524898,-0.03354804209052123,0.16441804126982384,awake
2.6525164398723877,0.0826137545702292,0.18140037843177598,0.014569564537268188,0.07836817042292249,awake
2.6564229442020966,-0.04667791235886842,0.26327464654913124,-0.05118550762099434,0.18732249602582596,awake
2.660329448531806,0.16112407123482628,0.11821275125126793,0.13285309786091654,0.1899477504761363,awake
2.6642359528615147,-0.019778209954328246,0.024308082435619653,-0.1159655648847452,0.14387234419668557,awake
2.6681424571912236,0.21838552373700454,0.2528911284638209,0.006497038031311297,0.26018575676864353,awake
2.6720489615209324,-0.11239816281665398,0.06126257001052482,-0.0132988242573409,0.12272927583194455,awake
2.6759554658506417,-0.03033761162873369,0.056679413423187525,-0.04233346590773964,-0.09273966336681212,awake
2.6798619701803505,0.11773856911003866,-0.1687528064252568,0.14118397652319525,0.3328896662493024,awake
2.6837684745100594,-0.10129139940019166,0.10426667194399278,-0.05880227367511958,0.023853590899082795,awake
2.6876749788397682,0.1137934111891682,0.16239570205356513,-0.06232380059794722,0.18834522816555446,awake
2.6915814831694775,0.11804016666637965,-0.0012334641026440982,-0.03097905807420652,0.003624523448120809,awake
2.6954879874991864,0.21333549268720836,-0.10867787726633682,0.06526010501289042,0.21284375291582058,awake
2.6993944918288952,0.11954232998243683,0.0779803977380791,0.22052027796126078,0.3045419859182924,awake
2.703300996158604,0.2563662335385843,0.41079354758733594,0.15825158557074087,0.21515262931639256,awake
2.7072075004883134,0.3470455676894536,0.28386020539845486,0.22351711645618694,0.40678500324877626,awake
2.7111140048180222,0.5195458768643768,0.3286080511712762,0.3094594037033981,0.3735733458241636,awake
2.715020509147731,0.3431538118746375,0.3905748852127033,0.5889586592987626,0.17149426533490206,awake
2.7189270134774404,0.4658896623248854,0.3501621955219856,0.3177301367526499,0.4568280193600058,awake
2.722833517807149,0.2761140266450758,0.24570481586608614,0.4000193061616937,0.21525183868557274,awake
2.726740022136858,0.21504948836896326,0.1395864396132108,0.2863650297370927,0.29272984918553857,awake
2.730646526466567,0.2794127331708748,0.04612621952910338,0.1896523767056505,-0.018954244424601557,awake
2.734553030796276,0.21936029758706005,0.1963291034566004,0.24258146321073223,0.20784921075495866,awake
2.738459535125985,-0.0590550102411852,0.08166133662667201,-0.09084232443926576,0.33979755665624745,awake
2.742366039455694,0.02267324295988271,-0.08059558967820363,-0.012491807481992787,0.171018808392486,awake
2.7462725437854028,0.07459428767416146,0.06496486096625959,-0.050999474400841516,0.16267551349708653,awake
2.750179048115112,-0.16194971384380505,0.10699178303434785,-0.016318985910992023,0.03410367387995596,awake
2.754085552444821,-0.1823588717061297,-0.12009505252693428,0.08448228921553808,-0.10545494811051409,awake
2.7579920567745297,-0.022753555059684526,-0.17380789724644832,0.021433620421205425,-0.06382126632613427,awake
2.7618985611042386,-0.11190199194721803,0.021362482612764952,-0.04821997258448091,0.029467353774082966,awake
2.765805065433948,-0.20553072570985695,-0.13709572249056734,-0.218204184121904,-0.3045857624614551,awake
2.7697115697636567,-0.5375061097635614,-0.30295804622522904,-0.5269562257519486,-0.2644933371935969,awake
2.7736180740933656,-0.3234460066942492,-0.11874042881980604,-0.43164171489500186,-0.41276150958823843,awake
2.7775245784230744,-0.4663107234729367,-0.13953798786289728,-0.2708637085292004,-0.2933001286792294,awake
2.7814310827527837,-0.6176388928333594,-0.365290649935538,-0.4895878776224157,-0.4440346996971269,awake
2.7853375870824926,-0.23750701504886804,-0.4281827893684169,-0.5000990436001813,-0.3163747970781415,awake
2.7892440914122014,-0.5133363447572181,-0.3634718433517587,-0.35996019718259553,-0.3843897296060361,awake
2.7931505957419107,-0.3019089574050896,-0.4013891782777157,-0.22264918345567056,-0.38891328198270364,awake
2.7970571000716196,-0.3124819736303497,-0.15920034760302607,-0.15070245580805464,-0.27300541210285434,awake
2.8009636044013284,-0.32393743545395154,-0.3587782639289402,-0.2775854125171528,-0.50573475417544,awake
2.8048701087310373,0.09857866056166528,-0.043692103524211275,-0.1953502338844786,-0.21607063738880253,awake
2.8087766130607466,0.052308079961326776,-0.16053759035612047,-0.1343434653005713,0.0467214288306331,awake
2.8126831173904554,-0.04331031511145414,0.0037510523724126194,-0.016289509809167452,-0.11604412124790627,awake
2.8165896217201642,0.1335487010277574,0.19527944637502762,0.1096472586626497,-0.05680393164589562,awake
2.820496126049873,0.006549150671746114,-0.07085483181604502,-0.052041394703741854,-0.13753052447270253,awake
2.8244026303795824,-0.21151591785688761,-0.052616503390896435,-0.12158194969933546,-0.142854557936455,awake
2.8283091347092912,-0.09565973273150596,0.06772122492803617,0.0030647264916308925,-0.0050953878557389864,awake
2.832215639039,-0.07732529966826987,-0.28883196269983663,-0.12342842055091117,-0.010763704742898283,awake
2.836122143368709,-0.04287292677057629,-0.09659663550569518,-0.12785487122861394,-0.20713377004858652,awake
2.8400286476984182,0.00760634706507661,-0.06471356062509714,-0.06627978250459698,-0.2629222205506561,awake
2.843935152028127,-0.15105702530948883,-0.12808881501077543,-0.30624110703082275,-0.13777471706290448,awake
2.847841656357836,-0.07809163393421799,-0.16074944240689498,0.019130787748643324,0.012499491072033533,awake
2.8517481606875448,-0.015284084459606426,-0.21859136692811765,-0.10352882838020108,-0.2543386476890993,awake
2.855654665017254,-0.04628962728899426,-0.3325072178958196,-0.3046528254340742,0.022776630341781942,awake
2.859561169346963,-0.04548530537977413,-0.04628015784988658,0.057210848302332896,-0.05522166934961682,awake
2.8634676736766718,-0.12094612132276233,-0.2001852369249889,-0.22893172089135333,-0.17323822606034814,awake
2.867374178006381,-0.08593043497989096,-0.05868726518070186,0.04330567959878913,-0.24923200435030268,awake
2.87128068233609,-0.04725558878875798,-0.10451474321322962,-0.007561456293344412,-0.027578470587821438,awake
2.8751871866657988,-0.09948194322120515,-0.21639606304827985,0.03801179235425163,-0.14163407399083,awake
2.8790936909955076,-0.06819813405497942,-0.27590497641414136,-0.06988302594483776,-0.09613640187885561,awake
2.883000195325217,-0.31442103069515565,-0.6029361197273446,-0.30584891503258016,-0.27829838770440196,awake
2.8869066996549257,-0.3428737130118216,-0.47730049246863715,-0.3241150018110076,-0.37840794095476243,awake
2.8908132039846346,-0.2015221651494136,-0.517395042846296,-0.1415153920147669,-0.3485684668420526,awake
2.8947197083143434,-0.23157678432730855,-0.30890430781434175,0.04329450291267649,-0.09607127669912127,awake
2.8986262126440527,-0.08612124905509413,-0.08351262028916079,-0.1430767271926962,-0.18847935929323587,awake
2.9025327169737616,0.2546813564992033,-0.17041419061961266,-0.10719606665425763,-0.13876552567358016,awake
2.9064392213034704,0.06952917039972525,0.15677632707481817,0.14895244044114014,0.042321184577775534,awake
2.9103457256331793,0.19120737637106366,-0.17256035425351135,0.02305487892924208,0.0285993272713167,awake
2.9142522299628886,0.1965908621232168,0.1357348947394676,0.16281939853510607,-0.14728901702953462,awake
2.9181587342925974,0.12357660166806944,0.11077360537585117,0.1995091989287256,0.12986705524373532,awake
2.9220652386223063,-0.0076643965626557,-0.19844067570869003,-0.14535924923412508,-0.19164717546373786,awake
2.925971742952015,0.10593784204806199,0.07337006607962464,0.2064279318048416,0.15876014060043153,awake
2.9298782472817244,-0.2561094593923472,-0.12567740661029106,-0.3233471155500254,-0.19125442233008424,awake
2.9337847516114333,0.04892544630608041,-0.00839151052850038,-0.036783753596576964,-0.08958976616567488,awake
2.937691255941142,-0.13524407715659073,-0.20997397795893397,-0.2223187780421646,-0.22691143353965124,awake
2.9415977602708514,-0.1490167291994434,-0.028862023472121162,-0.19702372982584335,-0.21304996019489456,awake
2.9455042646005603,-0.2138400058406586,-0.1749016678980918,-0.1845145530245984,-0.09198048536003822,awake
2.949410768930269,-0.10774260627643059,-0.17463617607096915,-0.18326944241851142,-0.18993560483271638,awake
2.953317273259978,-0.40457588858295,0.000970880227026405,-0.4819112962266351,-0.2045436506627674,awake
2.9572237775896872,-0.3243749182360788,-0.05326422263030342,-0.3203404079922948,-0.11471727400966969,awake
2.961130281919396,-0.19674693538157656,-0.05063796962240326,-0.16932382991768158,-0.29327640657710957,awake
2.965036786249105,-0.26507720255948036,-0.19038113845475854,-0.19685239442917302,-0.2768050553665571,awake
2.968943290578814,-0.3569045862153979,-0.2782213288221255,-0.22951053679247835,-0.28950622175154717,awake
2.972849794908523,-0.26272128559568664,-0.26757183544250396,-0.2684724903303245,-0.17294263508362256,awake
2.976756299238232,-0.2933053081352053,-0.2547842489331684,-0.42367811213857637,-0.17189213961328476,awake
2.9806628035679408,-0.38638875700122266,-0.16339606565911052,-0.20489372183834953,-0.2194367890511455,awake
2.9845693078976496,-0.26449020568060605,-0.1967464019579867,-0.15804191973535026,-0.5118786215318242,awake
2.988475812227359,-0.2287600648053903,-0.2051872116757978,-0.08258917090184811,-0.22441028798551496,awake
2.9923823165570678,-0.27122659883830064,-0.3739768845609225,-0.3854527884361353,-0.24884489496242104,awake
2.9962888208867766,-0.18651112449513516,-0.10319047406191682,-0.2705330088225448,-0.14326156466168394,awake
3.0001953252164855,-0.039239779774705795,-0.047400715571629795,0.005421959381174651,-0.06350752716742496,awake
3.0041018295461948,-0.008008779834347751,0.13302878873499754,0.0655772533845602,0.014791508522024922,awake
3.0080083338759036,-0.05797239837556917,0.18255072040421622,0.07764138385306936,0.09773717618782529,awake
3.0119148382056125,0.34653727281678204,0.36436260220121935,0.3510374627458023,0.27911085969656474,awake
3.0158213425353217,0.3747766782086418,0.2142153416555689,0.3051811911460293,0.24959987853772994,awake
3.0197278468650306,0.31667731547152267,0.27364494234956965,0.4016401095321607,0.14556793238524915,awake
3.0236343511947394,0.5068790539482507,0.401063674665916,0.20412520529836176,0.4153444054175506,awake
3.0275408555244483,0.2426768299312299,0.44653560509361934,0.11360994166133426,0.2868435849414601,awake
3.0314473598541576,0.3078317980574219,0.28344250216313566,0.27739600827844324,0.4578497842544762,awake
3.0353538641838664,0.14185957194525578,0.09407836275356701,0.31667310191838494,0.2902894903977904,awake
3.0392603685135753,0.3196860519673189,0.09168872686702963,0.1651194338493518,0.4827208254074472,awake
3.043166872843284,0.20452791881923693,0.28721149916373534,0.36427942298416915,0.38818504020682104,awake
3.0470733771729934,0.14742916668735684,0.10325353297163899,-0.08479585531855166,0.2210869395483727,awake
3.0509798815027023,0.23988633997501782,0.2260131093441604,0.26507488801714874,0.26351097334818563,awake
3.054886385832411,0.2639735087832604,0.04135046104981298,0.10096583165058967,0.23092537039395641,awake
3.05879289016212,0.2057118226229028,0.06962571313815889,0.2782826710793401,0.1979198382190187,awake
3.0626993944918293,0.02294870061734064,0.2118133564936847,0.21905335825110694,0.19811001432627995,awake
3.066605898821538,0.3428333230846473,0.11746303481718344,0.29318379832618163,0.30806296640104663,awake
3.070512403151247,0.12541258814144585,0.24426194109502414,0.07947526556959522,0.11987087366087816,awake
3.0744189074809563,-0.25724049363582463,-0.10511400978599873,-0.22644820027374657,0.006241855000129384,awake
3.078325411810665,-0.1864202090064478,-0.1762171816432972,-0.19135940868017856,-0.015401547382723944,awake
3.082231916140374,-0.2911342757082058,-0.10557721129461287,-0.14902696644797375,-0.08127061707502319,awake
3.086138420470083,-0.15139532041999176,-0.003426400871486962,-0.148176457364675,-0.10800683403963796,awake
3.090044924799792,-0.08216588492465249,-0.11032777695775244,-0.203153589081625,-0.048713460055264585,awake
3.093951429129501,-0.3105547341066212,0.1420233877602295,-0.1096672045977416,0.06424044891400296,awake
3.09785793345921,0.09635098422553648,0.16385906139794398,0.3500110859603082,0.17912649124320765,awake
3.1017644377889186,-0.12681690446924998,-0.0241440804926433,0.054274446171441955,-0.07782867368257614,awake
3.105670942118628,-0.07053286915759287,0.42689408915423865,0.017949131403945454,-0.12766498806956453,awake
3.109577446448337,0.10186600320140002,0.14406813298662874,0.17824265996092867,-0.035507785527212815,awake
3.1134839507780456,0.2616804871827441,0.4997823124805996,0.16191055046645986,0.13894015719095587,awake
3.1173904551077545,0.2216769181370094,0.42500076129835423,0.4441560894151986,0.333636210441177,awake
3.1212969594374638,0.0887040609497913,0.2981228361547681,0.18434885820931313,0.1219736079350292,awake
3.1252034637671726,0.08555047876076441,0.24959825325276186,0.1784210993557945,0.18492018518327247,awake
3.1291099680968815,0.11846968217824011,0.19626375487090772,0.1689865590703619,0.32471848823460403,awake
3.1330164724265903,0.013572170322348413,0.370650039754372,0.3246346919827482,0.05664031518552638,awake
3.1369229767562996,0.008384821969461826,0.07206893511813331,-0.12457371140854209,0.0010204148319305772,awake
3.1408294810860085,-0.12766442585240428,0.14075782920605337,-0.059291615669198175,0.007643372632792758,awake
3.1447359854157173,0.024933930537421736,0.11059055996316199,0.15630529139402002,-0.11343256527537185,awake
3.1486424897454266,-0.01261039918234437,-0.0936488460859203,-0.14721464840004828,0.021410357781367746,awake
3.1525489940751354,0.05254228848494735,0.27900831917282914,0.0907126661093699,0.2919659758811142,awake
3.1564554984048443,0.12807134749805374,0.19560165253799733,0.10129811100574083,0.07735247014115854,awake
3.160362002734553,-0.021993326059768045,0.1859387987644161,-0.05107801419744931,0.19906040441882392,awake
3.1642685070642624,0.053368990965944274,-0.07375810860086164,-0.11374084652175676,0.07180852985033717,awake
3.1681750113939713,-0.07692680020828858,0.22484299723853285,-0.1331170334032011,0.19909260709872917,awake
3.17208151572368,-0.22142276991809096,-0.007142925786036838,-0.04193256546043192,-0.06245310751890225,awake
3.175988020053389,-0.055818874287187625,-0.005153497393719883,0.04129474098426672,0.21203233961562284,awake
3.1798945243830983,-0.09449887572710391,-0.04138756658098314,-0.08765888356225322,-0.04261926933294692,awake
3.183801028712807,-0.03569431655043728,-0.1106433127104906,-0.023874527379925327,0.2583739419022853,awake
3.187707533042516,-0.010460182029354833,-0.30347090230205026,0.03090285279978021,0.011997371831524106,awake
3.191614037372225,-0.056236993901298826,-0.028871044170683764,0.032292825932253286,0.03127694126429299,awake
3.195520541701934,0.12158370120392446,0.10608792217491007,0.028937631155013417,0.17281748097072086,awake
3.199427046031643,0.2973904098318369,0.10918349607403616,0.1199838335718858,0.05597609462066158,awake
3.203333550361352,0.1909997257088456,0.3638042334851993,0.32001590788671236,0.17253649321996845,awake
3.2072400546910607,0.3543637683424868,0.2987029392762651,0.5945880461209676,0.39455837361064794,awake
3.21114655902077,0.366520163616605,0.3060277956459774,0.5016718754543199,0.4467066630737166,awake
3.215053063350479,0.3382053762311292,0.2733963562177087,0.2925223679909215,0.5529036993108442,awake
3.2189595676801877,0.3151914735183331,0.2890410340530011,0.5228691885787161,0.51150516117579,awake
3.222866072009897,0.510758799538327,0.48259637370250874,0.4470076223820465,0.44271506469622757,awake
3.226772576339606,0.4366964038398002,0.17474762402703678,0.18061293073150825,0.17675960477841512,awake
3.2306790806693146,0.2166110007607373,0.10720744132379438,0.15780461571885537,0.2762772764963201,awake
3.2345855849990235,0.28816584596020506,-0.007899956086760529,-0.030097835146776636,0.17025497075820895,awake
3.238492089328733,0.16663022200551475,0.41737362718498583,0.20310876807073328,0.14373600038319156,awake
3.2423985936584416,0.09408892013437448,0.035076845813035384,0.12605835513167082,0.23406867992782768,awake
3.2463050979881505,0.21516986077022854,-0.14049554344221982,0.038286863551453075,0.2831852226928926,awake
3.2502116023178593,0.02770351435742252,0.008341844424845406,0.10057349924585741,-0.06353927362447223,awake
3.2541181066475686,0.02371485424557202,0.19360962722120983,0.07857006372148895,-0.14316796926766745,awake
3.2580246109772775,-0.037530785577847295,0.06557396070930388,-0.13254021410388622,-0.14285602727119856,awake
3.2619311153069863,-0.09709585243680856,-0.16545671656251743,-0.09304029766794022,-0.12230081900900286,awake
3.265837619636695,-0.12678276020711424,-0.05757528054443446,-0.20114653426998047,-0.08127908617032312,awake
3.2697441239664045,-0.5206740938970232,-0.35371559313211287,-0.40632597337654675,-0.3976594879972498,awake
3.2736506282961133,-0.22173588382447645,-0.188261588478048,-0.18173965744377302,-0.23996279747502453,awake
3.277557132625822,-0.36848177499037116,-0.2931053151244361,-0.5201150939793724,-0.4656372513077073,awake
3.281463636955531,-0.3878591073901041,-0.4536891553632726,-0.5187704280148814,-0.3561913764207701,awake
3.2853701412852403,-0.423289668305772,-0.4519594644222467,-0.4117124485496425,-0.5317172788345115,awake
3.289276645614949,-0.40904357780702716,-0.37091549935640034,-0.39196271919319153,-0.2578649640802308,awake
3.293183149944658,-0.5160803742930963,-0.3261535552895864,-0.4335252766343906,-0.2639649294080598,awake
3.2970896542743673,-0.3729425294239596,-0.23840513053647228,-0.38731671641514465,-0.14773700214990973,awake
3.300996158604076,-0.1279396611612517,-0.13272972560172416,-0.12580938773004877,-0.043220872894164986,awake
3.304902662933785,-0.09688305098060818,-0.008678151578513094,0.0012919986887214956,-0.08058629592606131,awake
3.308809167263494,-0.1823719979580809,0.1254313581980889,0.06105084867982259,-0.21838706788545467,awake
3.312715671593203,-0.15056243120265722,0.0499035448944464,0.021186033559912457,-0.1922814460786013,awake
3.316622175922912,0.0890160255032041,0.2252326493913528,0.23024360815065967,0.07249564129464761,awake
3.320528680252621,0.16817225193750826,-0.07132184945349193,0.05936515594214879,0.1172732259504278,awake
3.3244351845823297,0.1680441141462098,0.18536169642314715,-0.09579803822497125,0.1373198968700349,awake
3.328341688912039,-0.029534076946853057,-0.10807167581281342,0.04997195655383152,-0.058018400581477725,awake
3.332248193241748,0.04837940835921654,0.04167088414728504,0.03497499221602973,-0.16164147264373344,awake
3.3361546975714567,0.04079372298560753,-0.28030165892355174,0.05070461579399611,-0.09507447988660998,awake
3.3400612019011655,-0.06705883554227192,-0.026304825311755015,-0.06660870106463389,-0.10148025967478722,awake
3.343967706230875,-0.13038701518211088,-0.10785060757997778,-0.12031191183818413,-0.0939645535035082,awake
3.3478742105605837,0.04076489710363187,-0.05108313788985232,-0.23021282752915412,0.08860284932600428,awake
3.3517807148902925,0.052963140647027576,-0.06921318826996715,-0.01286352375364025,-0.1983026414533823,awake
3.3556872192200013,-0.1590969312351489,-0.3127613707282426,-0.31242314914598235,-0.22031094784428173,awake
3.3595937235497106,-0.05376157634182328,-0.20248023645844243,-0.15865495333464882,-0.1559175860522367,awake
3.3635002278794195,0.2054694273502963,-0.06853132644246446,-0.1475957087194295,-0.05164835309319934,awake
3.3674067322091283,-0.09354077921238134,-0.4291272200794628,-0.04012661285009378,-0.2601972204872172,awake
3.3713132365388376,-0.2097255714771626,-0.23293928480861492,-0.28916467227817244,-0.18320480296702982,awake
3.3752197408685465,-0.10777663758601821,-0.2999633724225307,-0.3757326991383796,-0.22492013767236205,awake
3.3791262451982553,-0.1955386493773282,-0.37493751658083563,-0.3894842386930014,-0.1534603493911349,awake
3.383032749527964,-0.09230856230641346,-0.4451918668757986,-0.2571734143584463,-0.2104375684883029,awake
3.3869392538576735,-0.11511414430460629,-0.4972456380705298,-0.30618650708502115,-0.3744579848218186,awake
3.3908457581873823,-0.11613578447624308,-0.3448237307211095,-0.3415738119966927,-0.1516487285367148,awake
3.394752262517091,-0.11203901724906273,-0.3278804232033812,-0.25413019234764694,-0.31732150343694554,awake
3.3986587668468,-0.2694590484467254,-0.5286812709573886,-0.40509935717954537,-0.2438832525822512,awake
3.4025652711765093,-0.03770405828257012,-0.17145986554263332,-0.14242919346598576,0.04945637907583908,awake
3.406471775506218,0.11104097126751825,-0.07042561599982444,0.20625100496928594,0.08104766645091194,awake
3.410378279835927,0.15430598329298034,0.10389940229383493,0.250904192120737,0.15955234091509618,awake
3.414284784165636,0.07578913601373588,0.019994229607863012,0.06448211922186338,-0.12402313273067087,awake
3.418191288495345,0.0010295832358919732,0.053573399405433826,0.06305984601597871,0.0013303473317833048,awake
3.422097792825054,0.130734113070086,0.02109231294246075,0.03767229218771605,-0.12344370003622765,awake
3.426004297154763,0.08278854567279446,0.13514508643877268,0.10046250978548342,0.06929685994621275,awake
3.429910801484472,-0.1296460647582302,-0.14866908333419954,-0.11361217626076173,-0.29081895944090713,awake
3.433817305814181,-0.1368993932981096,-0.14510301841253748,-0.16507313465828416,-0.08519808653618272,awake
3.43772381014389,-0.0033745492743667838,-0.046768043701942236,-0.04933840657539497,-0.19213724026634182,awake
3.4416303144735987,-0.091872345495108,-0.12167180518040252,-0.21702229901375195,-0.3641352843359108,awake
3.445536818803308,-0.11467521834214475,-0.1149387563141429,-0.2206856373373665,-0.34938989561974954,awake
3.449443323133017,-0.45009139967020284,-0.1793135095662049,-0.18542003294277282,-0.2085000352242249,awake
3.4533498274627257,-0.18225579657556895,-0.21138092924613583,-0.4533423846297622,-0.47252421795392796,awake
3.4572563317924345,-0.15323462969509943,-0.09940136426906448,-0.12415681859469795,-0.30076542102028236,awake
3.461162836122144,-0.26814704619250146,-0.17678149106294935,-0.2620473070652803,-0.18942830981174505,awake
3.4650693404518527,-0.416751376367111,-0.05705749836267411,-0.34620028158063026,-0.3853634283645561,awake
3.4689758447815615,-0.4056528446376714,-0.20184003839147513,-0.3847035139600254,-0.3155377447695772,awake
3.4728823491112704,-0.30109917548619675,-0.20469264164587275,-0.200830161106705,-0.1352091167925361,awake
3.4767888534409797,-0.4818542902055787,-0.5639385559537656,-0.28483927205410436,-0.311104636459405,awake
3.4806953577706885,-0.33586719433137463,-0.32182457528671143,-0.3689078972355343,-0.3431005338173761,awake
3.4846018621003974,-0.19927107824805107,-0.11874961729241139,-0.2940610016090918,0.007546438253229204,awake
3.488508366430106,-0.33605877400320155,-0.19915466074344038,-0.2866683610145054,-0.34401254413449966,awake
3.4924148707598155,0.010666602533761893,-0.09769590912702415,-0.06268877204259764,-0.062253530536408024,awake
3.4963213750895243,-0.19971742598451298,-0.14401063631205763,-0.07443978826412354,-0.19621595294016045,awake
3.500227879419233,-0.01504100363542351,0.11944390894182993,0.009276963050283735,-0.09782708993728603,awake
3.5041343837489425,0.2228890540605969,0.2245478571593071,0.25797599719485675,0.14414464511509295,awake
3.5080408880786513,0.27034922473657236,0.25399337921799503,0.25187629185601246,0.21225634845818991,awake
3.51194739240836,0.26420112549090424,0.22563809023178705,0.14839327609797623,0.23991389079944905,awake
3.515853896738069,0.5118417131896227,0.3405111873317112,0.2345679658824007,0.23279970111746073,awake
3.5197604010677783,0.2769523837509429,0.45746687415216536,0.18486688827533376,0.36645393290009287,awake
3.523666905397487,0.345130350189483,0.3578100988056198,0.31888479401771125,0.3418413607594735,awake
3.527573409727196,0.2706503653459195,0.13161439377807502,0.2792673252649441,0.07444669970100773,awake
3.531479914056905,0.38663522628088526,0.03080851302504864,0.29617995577267975,0.4821476215441124,awake
3.535386418386614,0.4136495239201571,0.1849145389518969,0.2839402735744416,0.22075191323608687,awake
3.539292922716323,0.40361926152855476,0.23737823547344242,0.34316785301642505,0.18879984675493433,awake
3.543199427046032,0.07715597380106587,-0.022286690558415825,0.12347024421795467,0.22860879481368618,awake
3.5471059313757407,0.23149398376893848,0.03469975312620649,0.1405007192914065,0.3613714849562075,awake
3.55101243570545,0.07763963761177492,0.0685043604105427,0.14157775962129157,0.374635608095816,awake
3.554918940035159,-0.0589498718543492,0.11209036711542118,0.04832513770051451,0.12265719098530328,awake
3.5588254443648677,0.015752469949972286,0.12472670305625547,0.16958650296217903,0.2690739968291912,awake
3.5627319486945765,0.20761491269398963,-0.05566561341181721,0.08813585833142683,0.2402327447965363,awake
3.566638453024286,0.1305849883250861,0.047970126473343144,0.14237060718150163,0.21464493767977005,awake
3.5705449573539947,0.06978413653475792,0.13272551152611192,0.1430630962357598,-0.020668288332437945,awake
3.5744514616837035,0.17623593780694552,0.05375567023750737,-0.0186488754680906,0.06193875721736196,awake
3.578357966013413,-0.07075098798054708,0.15117888931436568,-0.08146067469327296,0.1324861155948464,awake
3.5822644703431217,-0.19867587164999578,0.17321361485594053,0.12152118276450877,-0.21006352018098767,awake
3.5861709746728305,-0.23818208950723396,-0.07880014843952683,-0.33909950222343355,0.04849333591285929,awake
3.5900774790025394,-0.12469787901193961,-0.0026981519199950066,-0.14595663417115276,0.027771818753742114,awake
3.5939839833322487,-0.2520822830849229,0.010970994867064043,-0.12693631617361018,-0.0469846537617777,awake
3.5978904876619575,-0.08277180638517559,0.07237991853927994,-0.054742544408475764,0.10085400359524967,awake
3.6017969919916664,0.16716601941570813,0.17208304529569907,0.17180588956310133,0.15988847940171985,awake
3.605703496321375,0.29918460465479624,0.32147132966993686,0.19358208406710822,0.13690016361306845,awake
3.6096100006510845,0.08716527873742103,0.5278816180986969,0.2773709040435107,0.22197975213369955,awake
3.6135165049807934,0.07469235850371168,0.5278749957203073,0.1547082189421502,0.19684077500029054,awake
3.617423009310502,0.03839610530620505,0.5430229479959863,0.20710666962744637,0.14424255550388598,awake
3.621329513640211,0.19581294889441425,0.38016010824054647,0.04324162872909475,0.15489328388818946,awake
3.6252360179699203,0.08279795551420067,0.3471350333460173,0.00975083997330671,0.28812384718566253,awake
3.629142522299629,0.19717669184757242,0.3293711183779063,0.2235716875319316,0.045415795690095795,awake
3.633049026629338,0.0678323461781236,0.25924512548780243,0.15100785574309414,0.1102741896344068,awake
3.636955530959047,0.16401305523349938,0.36801404282547917,0.1269889314875914,0.25195681722795005,awake
3.640862035288756,0.25998880410694253,0.2915970973721383,0.0903836266885818,0.21137605644838314,awake
3.644768539618465,0.22595001001778245,0.38967079159940676,0.014553157412787024,0.05574834356647493,awake
3.648675043948174,-0.03378076358642193,0.30355464006836397,0.14014488972691902,0.20603002116770977,awake
3.652581548277883,0.09016698249428863,0.2969276137308295,0.3122805391070067,0.2211267472798644,awake
3.656488052607592,0.06190884712285387,0.17454269178747445,-0.163725679662721,0.20787510261639036,awake
3.660394556937301,0.04109545403999458,0.370614485198679,-0.12425761399417712,0.2197874162702347,awake
3.6643010612670097,-0.04326724193076158,0.15039221910268608,0.12361796194096308,0.24762483905380972,awake
3.668207565596719,0.09871656653956752,-0.10912439229417444,0.13346601474692435,0.1715973275723916,awake
3.672114069926428,0.08690025775120354,0.07687410242498546,0.019067882519005458,-0.038856283714425705,awake
3.6760205742561367,0.011029024081677722,-0.09906866498656366,0.07476801904368197,-0.01685039653532941,awake
3.6799270785858456,0.048538038970292456,-0.15137782410272127,0.08836779059059846,0.07553754044445811,awake
3.683833582915555,0.07749497853061664,-0.16138161187657368,-0.019093383741445116,0.18407726531183555,awake
3.6877400872452637,-0.04578062661791054,-0.05002834717532895,-0.07481384934835125,-0.012000146872340425,awake
3.6916465915749725,0.09079959939393677,-0.13273041801737154,-0.06013701478930118,0.06867819976828937,awake
3.6955530959046814,0.2882291655935009,0.16406000450695207,0.2449715970687647,0.33750356870426323,awake
3.6994596002343907,0.2665661218105921,0.18213778152616947,0.18044806329160373,0.433469272441942,awake
3.7033661045640995,0.45020113315156807,0.19812581832692347,0.1961395159432977,0.2750940845530695,awake
3.7072726088938084,0.23196275117696946,0.3332576557677326,0.3874387544613771,0.3124102687327173,awake
3.7111791132235172,0.33173163626122587,0.2525463693463906,0.43324731387312365,0.37526871575931275,awake
3.7150856175532265,0.45538565923014807,0.2774104208790814,0.44370070840219716,0.5289431288630779,awake
3.7189921218829354,0.38297948759105704,0.3818307611073657,0.515693071893056,0.7257870646360741,awake
3.7228986262126442,0.42780374554462375,0.22618287335736437,0.3300072601473123,0.34977615656133054,awake
3.7268051305423535,0.39171888003700417,0.154468333533356,0.34534223420213095,0.32075474117091723,awake
3.7307116348720624,0.16337594899113875,0.2905318524443912,0.24793290805346638,0.19629428653686162,awake
3.734618139201771,0.1895123773559429,0.054387478477677595,0.21310069792788483,0.28913056123679903,awake
3.73852464353148,0.18203530856350267,-0.044118216948499545,0.1661103037048519,0.21519040595308908,awake
3.7424311478611894,-0.05401481753708702,-0.004170336585506425,-0.05422641816791085,0.0369614887903108,awake
3.746337652190898,-0.02763995789052414,-0.03473798775810777,-0.04029272093705174,-0.09045139431011259,awake
3.750244156520607,-0.24458171689985359,0.1324268550146402,-0.03677085479957663,-0.023436109908319257,awake
3.754150660850316,-0.23233246143838265,-0.0025631815614413703,-0.14851661239494188,-0.16712595643364764,awake
3.758057165180025,-0.1318888358731248,-0.08216020347180056,-0.14531107020786702,0.04679645968310461,awake
3.761963669509734,-0.14120762938873227,-0.12889922826642444,0.04126352905391942,-0.21558517849231734,awake
3.765870173839443,-0.23538682806195585,-0.1273558610847063,-0.13278482281718995,-0.11535870304773016,awake
3.7697766781691517,-0.26469769226762274,-0.2129267306411421,-0.4256762581404098,-0.08066551439019526,awake
3.773683182498861,-0.30608863079235393,-0.17622814130063608,-0.22878130659043536,-0.22176508631844608,awake
3.77758968682857,-0.549924462997587,-0.5321805641682933,-0.26382683069002355,-0.3827022868881147,awake
3.7814961911582787,-0.24239937121380867,-0.48714256550343205,-0.489671112989692,-0.35013534155465453,awake
3.7854026954879876,-0.1886719277631666,-0.13625294067595572,-0.35402897433524094,-0.27261736620499266,awake
3.789309199817697,-0.4835465514288066,-0.2721328375649721,-0.37485791914369015,-0.502627671514376,awake
3.7932157041474057,-0.24084253450269028,-0.14413061069414812,-0.3733540030363608,-0.14979498551817216,awake
3.7971222084771146,-0.40057515703317315,-0.41889865970564477,-0.24695056617611774,-0.34682303542638665,awake
3.801028712806824,-0.38944267916509023,-0.05473647395421785,-0.4138150045036658,-0.5221501970182886,awake
3.8049352171365327,-0.29181084616960334,-0.0807522898879101,-0.030838640561802175,-0.3130056041831677,awake
3.8088417214662416,-0.0625478902647835,0.018092789138280364,-0.06635782667214746,-0.364165463392222,awake
3.8127482257959504,0.18108216212806627,0.12919645497797355,0.11025429632731151,-0.049820860043682226,awake
3.8166547301256597,0.0191099906903135,0.03044310947256411,0.198169275747703,-0.21197131778955075,awake
3.8205612344553685,0.0143731172991165,0.03509538985350297,0.13771144507833366,0.06735006871741447,awake
3.8244677387850774,0.14181151069679365,-0.0845570200036254,0.11050046372401709,-0.07258394471724267,awake
3.8283742431147862,0.18670072425922912,0.08634037144611934,-0.03360664166528707,-0.0916498686782124,awake
3.8322807474444955,0.0582366174691613,-0.0019592450465396594,0.02642376240934019,-0.2399695312652712,awake
3.8361872517742044,-0.21745472161586896,-0.1382796974947825,-0.11604954192827874,-0.20020184904527796,awake
3.8400937561039132,-0.05844269031220224,-0.30743136501306534,-0.05667598728824487,-0.1618511415254503,awake
3.844000260433622,-0.017849396347121942,-0.13362732083275575,-0.1356821428896016,0.11889815819816726,awake
3.8479067647633314,-0.08894838808565247,-0.2669652679319521,-0.01719959472545323,-0.10338187113332623,awake
3.8518132690930402,-0.08542029555343555,-0.29091722248612306,-0.14997628360476362,-0.09612201019126726,awake
3.855719773422749,-0.05830234274531772,-0.25303148789901964,-0.05122300491974453,-0.06925497500391876,awake
3.8596262777524584,-0.11799285814102868,-0.13999910853271977,-0.12732853487100831,-0.010621711697352758,awake
3.863532782082167,-0.012851382071113642,-0.21413428866424877,-0.17196770699153624,-0.1836008031100627,awake
3.867439286411876,-0.07493993470425273,-0.2439901872255259,-0.034767909386931514,0.031971794516890334,awake
3.871345790741585,-0.16527621386783747,-0.4829634351210027,-0.09940827411029896,0.0944711676186707,awake
3.875252295071294,-0.059409825929971564,-0.3400483049909264,-0.2766699530471133,-0.26811071677629067,awake
3.879158799401003,-0.0027487827253329794,-0.3487417176478627,-0.06294406777475325,-0.16530238151809679,awake
3.883065303730712,0.03872531231740908,-0.4596558499039611,-0.1355141907474739,-0.13225772613620912,awake
3.8869718080604208,-0.08136663878221195,-0.23196007369038382,-0.17558181653032795,-0.22049323883030134,awake
3.89087831239013,0.005771590063661208,-0.34226566530557173,-0.04563315247430674,0.03440428092614706,awake
3.894784816719839,0.001368711285359106,-0.23488784036279894,-0.13112814632051487,-0.12508301153972923,awake
3.8986913210495477,-0.04152186785042083,0.0014860624501765174,-0.06264786319333404,-0.33344238439887874,awake
3.9025978253792566,-0.21206209878317017,-0.23241274835426579,0.014386760109024684,-0.1332299023227339,awake
3.906504329708966,-0.061238279931659534,-0.17541863546836733,0.040191618836547954,0.04011864376357266,awake
3.9104108340386747,-0.0968150383974958,0.028113373435698488,0.07415126935939961,0.05434910094716784,awake
3.9143173383683836,0.2123797266947474,0.26946861107352904,0.05624720428083152,-0.04626030944628115,awake
3.9182238426980924,0.26242761167960427,-0.10021010836362071,-0.14946657636166516,-0.08359884622412937,awake
3.9221303470278017,-0.013110106043186076,0.20697188054675458,0.29336319791920423,0.03385348186693148,awake
3.9260368513575106,0.1525328863781984,-0.040274754231445886,-0.040509262488341025,-0.07669695571677079,awake
3.9299433556872194,-0.05305785863141564,-0.08027808303348238,-0.053045981410606576,-0.3663797934187092,awake
3.9338498600169287,-0.035964265077317176,-0.16772386279173002,-0.030112713553055632,0.1279370114477131,awake
3.9377563643466376,-0.2752507165474999,-0.15336960780743297,-0.23253012358767783,-0.30794676975759677,awake
3.9416628686763464,-0.06432694903325363,0.03723403674953765,-0.19797892792412009,-0.05571333313740967,awake
3.9455693730060553,-0.35075960767085174,-0.12165195839798518,-0.4872159052854571,-0.10796132833214397,awake
3.9494758773357646,-0.14793336567349338,-0.04463842302790609,-0.18250092601520465,-0.36648069338943984,awake
3.9533823816654734,-0.1928750964309504,-0.0834143550195677,-0.07084896615498763,-0.2702649361685713,awake
3.9572888859951822,-0.27907296225158534,-0.2881764141962776,-0.3305853851444765,-0.5155119243052076,awake
3.961195390324891,-0.22891288689594028,0.02643389803845994,-0.12950618266378214,-0.2573454007258588,awake
3.9651018946546004,-0.1082359005937446,-0.20456264582974698,-0.3821178059470046,-0.1399695965902335,awake
3.9690083989843092,-0.3021199864431182,-0.296614864556176,-0.41849745341483935,-0.3942746789322807,awake
3.972914903314018,-0.538286119994697,-0.2457962632007805,-0.19225956006530712,-0.25139111975092665,awake
3.976821407643727,-0.4850666366359037,-0.2735722605459783,-0.42536251168272676,-0.4526601705335586,awake
3.9807279119734362,-0.3799601386392751,-0.4138660709649756,-0.4601288811875356,-0.5501608022068252,awake
3.984634416303145,-0.4476642756259521,-0.36418671990712886,-0.5411359353058096,-0.4288276583842105,awake
3.988540920632854,-0.30754049180111287,-0.600018580421901,-0.23685011605167647,-0.19441637212638907,awake
3.9924474249625628,-0.27576279700058404,-0.08307022188923666,-0.2602225342870468,-0.002665059102575168,awake
3.996353929292272,-0.11260697618597021,0.016551599358391317,-0.09069227340520888,0.0032621595382638785,awake
4.000260433621981,0.009910039283467047,0.03345129455977693,0.022541434901445282,0.1531623796008953,awake
4.00416693795169,-0.11485189560222589,0.12558260524690013,0.1741582879985057,0.07193993996944989,awake
4.008073442281399,0.26251537420161913,0.21548328201819228,0.30688360756873667,0.27645341728876605,awake
4.011979946611108,0.44099321131391905,0.42743129415225356,0.2568742637871208,0.11326618579410955,awake
4.015886450940817,0.42888517498850515,0.2994402990694846,0.4689333663826998,0.34782339453038214,awake
4.019792955270526,0.37516266686854854,0.2165772408862661,0.3099200649862272,0.05149562893888604,awake
4.023699459600235,0.3191615668643494,0.17705376640340037,0.26065517936475857,0.3886815986735051,awake
4.027605963929943,0.3261569965064828,0.19188888061927728,0.2188209444519305,0.34342522881575416,awake
4.031512468259653,0.5441692854074609,0.44117503470488645,0.16650231495611809,0.42563601755682934,awake
4.035418972589362,0.21859318439884304,0.29851565914809985,0.2679074995621884,0.32178789864197427,awake
4.03932547691907,0.18020012798597426,0.050123062419891826,0.14771593180299286,0.23887012216808023,awake
4.04323198124878,0.4707341235403404,0.033111743136461716,0.09493280377595789,0.461750789901336,awake
4.047138485578489,0.34419978014964,0.0686429140193292,0.19907533337812092,0.2917260939206462,awake
4.051044989908197,0.26516281626570454,0.044924548779516904,0.28211043518963563,0.20803801278938303,awake
4.054951494237907,0.06429130591559404,0.13808015600811788,0.0828604111654372,0.0022169017811238256,awake
4.058857998567615,0.140110047578815,0.15735914068138532,0.013039587412232406,0.2402797884482107,awake
4.062764502897324,0.14484429040356595,-0.09770617715414272,0.06696024903299008,0.29249971466646807,awake
4.066671007227034,0.11483320017483752,0.11445191084493453,0.25526154704053616,0.01483236782759706,awake
4.070577511556742,0.0892707382028676,0.28608587054633033,0.12114147025944404,0.34553049167571726,awake
4.074484015886451,-0.11293205299413667,0.016622241345505745,-0.006751502323832925,0.24136317620760345,awake
4.0783905202161606,0.05509696360306561,-0.10760434214401714,-0.1963420357203232,0.13597086421500187,awake
4.082297024545869,-0.16213561192527673,-0.08276738704634914,0.03234997054769606,-0.05292533581242553,awake
4.086203528875578,0.040901137824420654,-0.10169085799986531,-0.022056278560386867,0.14678668759807104,awake
4.0901100332052875,-0.19082752451732105,0.16892812483483455,0.13013391203250793,0.21088326628972223,awake
4.094016537534996,0.14108720137411226,0.32332295294334207,-0.15169881198724278,-0.028474984076930582,awake
4.097923041864705,-0.08390252814404799,0.21355996387508808,-0.03493870686876216,-0.027241284416922945,awake
4.101829546194414,0.028982237562158703,0.23663013825908022,0.15067140295437714,0.2782708483402926,awake
4.105736050524123,0.11737915904582294,0.28721452690047905,0.004198086987894992,0.06722355108211665,awake
4.109642554853832,0.01933519670640868,0.23437850015264064,0.14859782612826977,0.1160331363022055,awake
4.113549059183541,0.16921076726966092,0.3858078993951338,0.10100265103527918,0.285971606467146,awake
4.11745556351325,0.14523595961766234,0.41031914292069954,0.07611563528296453,0.155229236422012,awake
4.121362067842959,0.14584725675341134,0.1954380004066668,0.12457085853520178,0.06766960803505367,awake
4.125268572172668,0.26662702342216527,0.3183325578061305,0.059014837291425454,0.27897285141177913,awake
4.129175076502377,0.18171512400474585,0.37400740431264534,0.0621505409330005,0.22769009713106864,awake
4.133081580832085,0.05777894417577191,0.24672395389956692,0.1908757325839105,0.12765833917752661,awake
4.136988085161795,0.1398787125280952,0.20191147746388421,-0.07512951661827337,-0.05526395518959992,awake
4.140894589491504,0.2628579426203729,0.19988020552637703,0.21082691292054204,0.08511309926492922,awake
4.144801093821212,-0.03855361918209973,0.09798148826994962,0.02870925742627877,0.23289139263106734,awake
4.148707598150922,-0.005365910831575699,0.2468333630274709,0.13214900709452929,0.23277986578075405,awake
4.152614102480631,0.0020367685213597345,0.16914274562617154,0.07666937934881635,0.18427436403034408,awake
4.156520606810339,0.2686566048396114,0.08765334932025423,0.005257235356465467,0.26168633557907955,awake
4.160427111140049,0.07800914872950139,0.21908674135559475,0.30474407543197246,0.04441435834016276,awake
4.164333615469758,0.3040703058968154,0.1039210108006456,0.21455005681130326,0.030017045754984345,awake
4.168240119799466,-0.08124536744407568,0.0780285880002263,0.07480820080202868,0.1460079579666301,awake
4.172146624129176,0.017504333328923358,-0.10742612495963583,-0.18322548963223198,0.10920472773644187,awake
4.176053128458884,-0.0435132177215288,-0.085616245548306,0.09097539955400881,0.013658022848672444,awake
4.179959632788593,0.04887423370958403,-0.017617932904465353,-0.12238458251426926,-0.05864341807580599,awake
4.183866137118303,-0.016950710844120864,-0.13396394951167967,0.10405981982427553,-0.00139898109471083,awake
4.187772641448011,-0.10313748184463568,0.06518576035529078,-0.012757680479291787,0.02090050938180074,awake
4.19167914577772,-0.008407577596002913,-0.12867490860996955,0.04540169045420785,0.06834900088551779,awake
4.19558565010743,0.13800357469497138,-0.009121858829071391,-0.09302538086596934,0.23450388977695386,awake
4.199492154437138,0.1744719813312841,0.09030392379021411,0.17926903038932498,0.2464400011463145,awake
4.203398658766847,0.2716709470953531,0.18473255082664292,0.2454992585044504,0.13824362505241566,awake
4.207305163096556,0.1247780621816125,0.06696746451715949,0.18958705507474766,0.17984443334786257,awake
4.211211667426265,0.3992432655705758,0.21783902035313174,0.3025100414665371,0.19813893022195234,awake
4.215118171755974,0.18720272020985443,0.3508791358403319,0.47538996401208866,0.09685461070003198,awake
4.219024676085683,0.6043415532504252,0.2793099198289478,0.4011204772468738,0.25561465742964595,awake
4.222931180415392,0.385273459213601,0.336812439870113,0.2014180782185785,0.36441717658595796,awake
4.226837684745101,0.40680808056336837,0.39165280257377694,0.3275603486055785,0.4498809818807694,awake
4.23074418907481,0.4150569659104847,0.13627459197347558,0.24828495254280272,0.26399905241772237,awake
4.234650693404519,0.2593807124996879,0.2736203463596601,0.15717435766507248,0.22280408147028416,awake
4.238557197734228,0.20208099848565125,0.050917726708220964,0.1343971473278112,0.3681714586896515,awake
4.242463702063937,-0.02437688506689655,-0.18018759129710155,-0.06258592247465761,0.016993190994751443,awake
4.246370206393646,0.20379553464187453,-0.024801013713090403,0.07079886827361256,-0.017659968820303226,awake
4.250276710723354,-0.03875660280481026,-0.1457202604489265,-0.10088069216350642,-0.41082356571578016,awake
4.254183215053064,0.21095197838303742,-0.0816777307742924,0.13753253885664402,0.11283450658014163,awake
4.258089719382773,-0.025099199821983446,0.09996502180248772,-0.028993301090336477,-0.04426945961214739,awake
4.261996223712481,-0.28096911340777,-0.21384694439286306,0.0001501701699025415,-0.16410730690990977,awake
4.265902728042191,-0.22900089814208738,-0.08262518399943564,-0.07075092600350952,-0.07491678570889256,awake
4.2698092323719,-0.19476114826820196,-0.1245275906847198,-0.27277195709416785,-0.34755474940456665,awake
4.273715736701608,-0.19265198565097724,-0.164925903001854,-0.39835123653629156,-0.3486980872733918,awake
4.277622241031318,-0.31035923431969986,-0.26595075445253147,-0.19824288392548717,-0.3169488811582536,awake
4.281528745361026,-0.6468446893686262,-0.6060495232769976,-0.5558297382066565,-0.4668330592571343,awake
4.285435249690735,-0.24475763089441122,-0.3238493176124626,-0.3169551771515388,-0.11663301376469037,awake
4.289341754020445,-0.6399093436969382,-0.5010768992368695,-0.6282887165882223,-0.369424339101358,awake
4.293248258350153,-0.33050725390396724,-0.11287507482716581,-0.22389392913293613,-0.2634139400847068,awake
4.297154762679862,-0.31945387321134017,-0.12336707467086509,-0.25289038313774775,-0.16551465306212063,awake
4.301061267009572,-0.027086759903713065,-0.12412225075689476,-0.31729255965692593,-0.2140932773799897,awake
4.30496777133928,-0.1214222569441189,0.024624932879940598,-0.24111115618211063,-0.07490488381811818,awake
4.308874275668989,-0.009799496337072675,0.12319441705697418,-0.11702921997450373,0.02258861548908425,awake
4.312780779998699,0.22152717015016632,0.13476828069279873,0.1286672770147559,0.002950169921033294,awake
4.316687284328407,0.0755821060883242,0.16403532357736508,0.15922218325531218,0.07631150814336898,awake
4.320593788658116,0.04230296120603451,0.17543955575804676,-0.014490834084657955,-0.09431186443099167,awake
4.324500292987825,0.09291843345885571,0.05066139161346932,0.08281433681248848,0.011659406356398866,awake
4.328406797317534,-0.03044438382544043,-0.11372141890726974,-0.15585654972542612,-0.19125328651708903,awake
4.332313301647243,0.09189571659746623,-0.10020975754781249,0.10035411800133115,-0.17432839103774275,awake
4.336219805976952,-0.045251556788497446,0.09950461088427474,0.18515878480175046,-0.2778478706272042,awake
4.340126310306661,-0.11288789694636338,-0.3993434046404552,-0.1085289193395334,-0.13616600753034885,awake
4.34403281463637,-0.08724834329358444,-0.29078501062352613,0.06753344735516793,-0.13569478410439834,awake
4.347939318966079,0.1569944359859066,-0.07530903634306033,-0.04854747024090475,-0.08144379889707942,awake
4.351845823295788,-0.06749830505574878,-0.26500287937830747,-0.15425516744793188,-0.09053644912272962,awake
4.355752327625496,-0.18601954095491952,-0.21727675976974536,-0.01119669422387571,-0.0958635050028503,awake
4.359658831955206,0.007959983501203083,-0.3948836227729573,-0.09868635449767273,-0.15461123544459507,awake
4.363565336284915,-0.015779370837892923,-0.1838469451680012,-0.06428185843562931,-0.1502112856136765,awake
4.367471840614623,-0.11413116867380681,-0.21777588362536485,-0.004311682753622036,-0.09069635597708212,awake
4.371378344944333,-0.09404061315621669,-0.41651504185618327,-0.02553281537879927,0.03803167345784915,awake
4.375284849274042,-0.08244834765844809,-0.26474031771838,-0.06142916420679384,-0.16839950331881848,awake
4.37919135360375,-0.22278828651879926,-0.4676961764014119,-0.08864261487889731,-0.16337446106076003,awake
4.38309785793346,0.004313737835702824,-0.40416866316670913,-0.1461608778601485,-0.22845624227918038,awake
4.387004362263169,-0.15433718451566622,-0.2889083111329595,-0.2970941169482583,-0.27992701529399044,awake
4.390910866592877,-0.33661731138787543,-0.42787544260030735,-0.2918963898818897,-0.3148865288545872,awake
4.394817370922587,-0.05550502166120455,-0.25358259403040906,-0.022245586833290962,0.04362613218620562,awake
4.398723875252295,0.06098809030406488,-0.19082231134711553,-0.14874073568913165,-0.023841807417453037,awake
4.402630379582004,0.12350852235416168,-0.05165053407215466,0.1746073148939196,-0.16404506369448169,awake
4.406536883911714,0.18969949925204146,0.14545489708660364,0.005247626951123324,0.12270524090735603,awake
4.410443388241422,0.08526268128604629,0.05760303874039659,0.18013294431020732,0.010036562009294835,awake
4.414349892571131,0.32732097623334805,-0.1208612537358274,0.161892835222019,0.009904067069066103,awake
4.418256396900841,0.07720278600014097,0.1837814706957605,0.1027766831470752,-0.03295038161712292,awake
4.422162901230549,0.04549496553109213,-0.0731423568552159,-0.028849143747409614,0.06317759379241292,awake
4.426069405560258,0.009739939023372543,0.18953694223943984,0.20381040426398842,-0.12601720396053084,awake
4.429975909889968,0.015519364968311286,-0.007768496571123065,0.09551752581650205,-0.21771690384790413,awake
